DATE 2017:074:10:31:14 obsn   0 az 150 el 19 freq_MHz  1420.4000 Tsys 127.050 Tant 22.792 vlsr  -40.07 glat -0.205 glon  0.117 azoff 0.00 eloff 0.00 source G0.0 
Fstart 1419.397 fstop 1421.403 spacing 0.009375 bw    2.400 fbw    2.000 MHz nfreq 256 nsam 5242880 npoint 214 integ     2 sigma    0.888 bsw 0
Spectrum      2 integration periods
 143.570  141.560  142.827  142.293  141.401  141.694  141.661  142.277  143.045  142.219  142.623  144.004  141.939  142.869  141.671  143.734  144.674  141.172  141.341  141.308  141.540  139.566  141.528  142.877  141.448  141.641  141.521  141.948  142.713  140.120  140.993  142.425  141.489  141.795  142.152  140.149  139.101  141.776  139.774  141.390  141.247  141.860  141.621  140.475  141.710  141.233  140.974  141.705  142.095  141.575  142.677  140.476  141.714  142.797  140.291  142.131  142.519  142.681  142.025  142.458  142.435  141.849  142.886  141.562  141.577  140.668  141.385  143.129  143.856  148.701  146.084  146.132  142.688  144.892  141.957  142.704  142.035  142.029  142.150  142.123  140.613  141.544  141.457  142.188  142.493  140.277  142.233  141.012  140.731  140.603  140.654  144.433  141.329  140.827  141.828  141.244  142.855  143.468  141.462  142.146  141.125  141.428  142.967  142.155  141.622  143.375  143.845  140.512  142.851  141.558  141.599  142.415  143.196  144.306  143.957  146.180  147.565  146.352  147.523  147.135  147.449  147.138  148.169  150.205  150.780  154.777  158.020  159.692  162.925  170.033  166.974  165.360  167.253  172.066  172.442  165.419  161.998  156.566  156.481  155.512  151.777  150.636  149.686  144.360  146.064  144.906  145.805  143.787  143.428  143.407  142.617  143.070  142.931  142.200  142.720  142.782  141.053  141.760  141.728  143.056  141.628  142.009  141.442  141.700  141.794  142.222  142.927  141.559  142.494  143.202  142.834  142.242  142.433  143.198  141.977  141.006  140.654  141.445  142.070  141.049  141.837  141.311  143.617  141.734  142.660  143.277  142.860  140.376  143.367  142.813  141.880  141.838  142.315  143.373  143.735  141.424  142.016  140.342  141.925  141.542  142.770  141.014  142.189  141.944  142.259  144.645  145.614  141.210  141.381  141.805  141.548  142.236  142.033  141.746 
DATE 2017:074:10:31:27 obsn   1 az 150 el 19 freq_MHz  1420.4000 Tsys 127.050 Tant 22.924 vlsr  -40.07 glat -0.205 glon  0.117 azoff 0.00 eloff 0.00 source G0.0 
Fstart 1419.397 fstop 1421.403 spacing 0.009375 bw    2.400 fbw    2.000 MHz nfreq 256 nsam 5242880 npoint 214 integ    13 sigma    0.362 bsw 0
Spectrum     12 integration periods
 145.118  144.400  145.224  145.355  145.062  144.327  145.113  145.335  145.358  145.746  145.635  145.769  145.329  145.685  144.908  145.960  146.217  144.261  145.208  145.015  144.615  144.630  145.703  145.084  145.873  145.350  145.623  145.745  146.032  144.090  144.943  144.889  144.282  144.629  144.428  144.211  144.524  144.330  145.049  144.165  143.755  144.496  145.021  144.769  144.032  144.394  145.071  144.640  145.004  144.771  145.112  144.669  144.573  144.673  144.995  144.974  145.063  144.739  145.233  144.581  145.018  144.749  146.184  145.885  145.329  144.303  145.343  145.764  147.155  159.723  148.502  150.335  145.965  146.069  145.135  144.635  145.578  144.544  144.682  144.840  144.674  145.077  145.611  144.892  145.053  144.877  145.712  145.199  144.782  144.931  144.857  145.335  145.193  144.807  144.910  145.476  145.589  145.605  144.794  144.552  145.500  144.433  145.188  145.308  144.663  145.171  144.373  144.851  144.887  145.074  145.404  145.781  146.718  146.658  147.318  148.430  148.490  149.242  150.828  151.333  152.489  154.355  154.924  158.238  161.636  166.787  172.577  177.330  184.748  191.405  190.328  185.388  191.504  200.364  199.240  190.742  183.639  173.893  168.297  166.015  161.276  158.920  156.101  154.355  152.424  151.782  150.765  149.957  148.913  148.271  147.486  146.784  147.250  146.060  146.911  146.219  145.276  145.194  145.674  145.737  144.895  145.132  144.853  145.190  145.606  145.772  145.332  145.378  144.894  145.083  144.794  145.087  144.593  145.382  145.205  144.676  144.960  145.158  144.126  145.027  145.209  145.177  143.942  144.165  144.036  144.980  144.810  143.223  144.359  144.881  144.503  144.711  145.260  144.139  144.750  144.454  143.960  144.041  144.174  144.903  143.989  144.123  144.273  144.393  144.199  150.150  149.705  144.056  143.412  144.731  144.554  144.411  144.830  145.118 
DATE 2017:074:10:31:40 obsn   2 az 150 el 19 freq_MHz  1420.4000 Tsys 127.050 Tant 22.718 vlsr  -40.07 glat -0.205 glon  0.117 azoff 0.00 eloff 0.00 source G0.0 
Fstart 1419.397 fstop 1421.403 spacing 0.009375 bw    2.400 fbw    2.000 MHz nfreq 256 nsam 5242880 npoint 214 integ    24 sigma    0.268 bsw 0
Spectrum     22 integration periods
 145.083  144.734  145.341  145.393  145.479  144.666  145.472  145.798  145.942  145.845  145.966  145.877  145.572  145.893  145.103  145.929  146.021  145.134  145.825  145.438  145.106  145.382  145.510  145.470  146.038  145.334  145.376  145.769  146.001  144.748  145.130  144.880  144.908  144.735  144.850  144.435  144.705  144.685  144.998  144.766  144.490  144.973  145.362  145.052  144.477  144.719  144.573  144.625  145.568  145.337  145.199  145.133  144.768  145.309  145.487  145.449  145.548  145.469  145.770  144.996  145.129  145.180  145.976  145.594  144.970  144.833  145.077  145.572  147.076  160.911  148.263  150.760  145.970  145.914  145.578  145.335  145.955  145.404  145.324  145.277  144.875  145.801  146.031  145.014  145.396  145.137  145.958  145.880  144.993  145.536  145.210  145.658  145.559  145.293  145.408  145.554  145.711  145.740  145.109  145.274  145.636  145.334  145.652  145.748  145.170  145.602  144.791  145.548  145.438  145.722  145.791  146.011  146.941  147.189  147.677  148.365  148.858  149.664  150.855  151.894  153.010  154.822  155.977  159.463  162.735  167.575  173.699  179.613  186.699  193.612  191.861  187.278  193.470  202.953  201.446  193.577  185.085  175.228  169.332  166.161  162.131  159.470  156.990  154.946  153.411  152.216  151.127  150.974  149.602  148.660  148.192  147.540  147.316  146.935  147.068  146.706  145.839  145.693  146.043  146.145  145.439  145.859  145.333  145.610  145.818  146.073  145.707  145.248  145.210  145.241  145.099  144.810  144.808  145.456  145.058  144.795  145.386  144.951  144.237  145.050  145.331  145.225  144.680  144.552  144.553  145.215  145.013  143.932  144.493  145.177  144.510  145.041  144.819  144.466  144.491  144.474  144.659  144.297  144.208  145.135  144.563  144.457  144.682  144.586  144.955  151.124  149.797  144.166  144.183  144.740  144.640  144.454  144.956  145.002 
DATE 2017:074:10:32:04 obsn   3 az 141 el 24 freq_MHz  1420.4000 Tsys 127.050 Tant 21.248 vlsr  -42.34 glat -0.205 glon 10.118 azoff 0.00 eloff 0.00 source G10.0 
Fstart 1419.397 fstop 1421.403 spacing 0.009375 bw    2.400 fbw    2.000 MHz nfreq 256 nsam 5242880 npoint 214 integ     7 sigma    0.513 bsw 0
Spectrum      6 integration periods
 142.089  142.222  143.083  142.429  141.958  141.774  141.946  142.627  143.218  142.824  142.899  142.746  144.202  142.864  142.606  143.547  142.549  141.963  142.853  142.792  142.866  142.513  142.513  143.448  143.145  142.352  142.012  143.243  142.877  143.088  143.367  141.878  143.624  143.244  142.628  142.783  142.002  141.677  142.831  143.516  141.743  142.739  142.491  141.937  144.102  142.530  142.389  142.756  143.705  142.903  143.566  143.051  143.069  142.482  142.952  143.817  143.374  143.997  143.413  143.310  143.752  144.211  144.427  144.636  142.125  143.819  142.854  144.485  144.205  170.438  150.487  146.837  143.886  143.017  143.757  144.143  144.022  143.689  143.867  143.304  142.795  142.940  143.861  143.092  142.876  144.246  143.888  144.260  141.943  143.953  143.639  144.328  144.791  142.506  143.013  143.725  144.968  143.786  144.032  144.515  144.289  145.056  144.669  144.424  145.464  145.028  145.991  145.848  145.884  147.267  149.097  148.580  149.675  150.341  151.319  153.601  154.071  155.711  157.702  160.085  164.904  167.835  170.049  174.667  178.494  182.615  185.463  189.807  191.338  191.963  189.636  187.265  188.450  192.870  189.445  178.141  170.356  165.719  162.914  162.069  160.070  159.466  158.956  157.561  155.962  153.841  152.734  151.150  149.168  148.803  146.835  146.891  145.638  144.256  145.381  146.349  144.890  144.978  144.641  143.203  144.838  142.755  142.950  143.819  143.315  143.521  143.755  143.168  143.438  143.497  143.483  143.827  143.421  144.125  143.531  142.960  143.642  143.670  144.240  144.141  144.385  143.290  144.660  143.388  144.200  143.394  143.758  142.474  142.430  143.322  143.387  143.942  143.107  143.121  144.414  143.127  144.490  144.319  144.531  143.425  143.671  142.753  143.858  144.033  144.528  145.344  145.003  144.668  144.358  144.419  144.256  143.433  144.864  143.227 
DATE 2017:074:10:32:17 obsn   4 az 141 el 24 freq_MHz  1420.4000 Tsys 127.050 Tant 21.518 vlsr  -42.34 glat -0.205 glon 10.118 azoff 0.00 eloff 0.00 source G10.0 
Fstart 1419.397 fstop 1421.403 spacing 0.009375 bw    2.400 fbw    2.000 MHz nfreq 256 nsam 5242880 npoint 214 integ    17 sigma    0.314 bsw 0
Spectrum     16 integration periods
 142.132  142.302  142.583  142.528  141.781  142.301  141.809  142.097  142.344  142.173  142.479  142.502  142.756  142.328  142.623  142.878  142.692  142.010  142.375  142.197  142.770  142.184  142.605  142.534  142.860  142.221  142.262  142.240  143.190  142.634  143.053  142.092  142.884  142.462  142.220  142.176  141.545  142.144  142.674  142.688  141.901  142.823  142.067  141.916  142.676  142.235  142.715  142.075  142.877  142.525  143.135  142.259  142.635  142.459  142.746  142.721  143.624  143.674  143.139  142.426  142.595  143.072  143.990  144.368  142.015  142.979  142.790  144.010  144.289  172.087  150.467  145.142  143.750  143.353  143.314  143.643  143.905  143.296  143.571  143.234  142.717  142.969  142.931  143.470  143.187  143.381  143.308  143.645  143.057  143.197  143.719  143.341  143.484  142.950  143.182  143.258  144.428  144.339  144.336  144.110  144.243  144.672  144.774  144.997  145.601  145.768  145.921  146.360  146.396  147.776  149.353  149.756  149.742  150.778  152.192  153.714  155.039  156.436  158.563  161.118  165.615  169.629  172.509  176.468  180.672  184.220  187.461  190.495  191.792  192.870  190.389  186.773  187.840  191.851  187.289  176.526  168.537  164.230  161.775  161.054  159.975  159.530  159.683  157.570  156.153  154.039  152.502  151.357  149.498  148.442  147.628  146.230  145.878  144.954  144.727  146.001  144.828  143.707  144.176  143.383  144.058  142.898  143.351  142.792  143.029  142.991  143.383  142.917  143.047  143.756  143.242  143.323  143.054  143.274  143.211  143.528  143.150  143.678  143.218  143.419  143.913  143.318  144.121  143.342  144.116  143.069  143.589  142.900  142.681  143.654  144.048  143.010  143.252  143.343  143.972  143.652  144.115  143.522  143.848  143.334  143.883  143.067  143.428  143.669  143.582  144.021  144.588  143.616  144.002  143.160  143.701  143.787  144.574  143.873 
DATE 2017:074:10:32:41 obsn   5 az 131 el 28 freq_MHz  1420.4000 Tsys 127.050 Tant 21.468 vlsr  -43.33 glat -0.200 glon 20.118 azoff 0.00 eloff 0.00 source G20.0 
Fstart 1419.397 fstop 1421.403 spacing 0.009375 bw    2.400 fbw    2.000 MHz nfreq 256 nsam 5242880 npoint 214 integ     1 sigma    1.256 bsw 0
Spectrum      1 integration periods
 141.967  142.518  140.591  141.012  140.531  141.356  141.599  143.658  142.637  143.059  140.791  144.064  143.169  141.425  141.103  140.898  140.121  144.113  145.075  144.112  142.961  141.249  142.631  142.041  142.484  141.781  143.766  141.864  142.867  140.053  140.919  143.007  142.847  140.539  142.246  142.595  143.212  142.564  143.999  142.725  140.781  141.311  142.611  142.056  140.592  139.951  143.102  142.049  144.717  142.702  144.856  144.177  142.999  142.268  141.924  140.862  143.073  140.027  143.609  142.888  142.817  141.501  142.470  145.672  145.403  145.429  143.411  143.056  145.751  170.877  141.967  143.964  142.319  142.023  141.517  141.678  144.081  144.475  143.456  145.183  142.603  144.999  140.966  143.816  144.343  144.384  145.318  142.188  141.711  144.771  145.588  144.229  142.380  144.288  141.929  141.071  145.365  143.185  145.940  144.359  144.193  144.388  146.306  145.913  145.657  144.877  145.000  147.218  149.704  149.769  147.830  153.606  152.822  151.471  152.130  153.748  154.177  157.739  159.304  161.593  166.085  169.114  174.960  178.036  182.017  184.255  187.828  189.659  190.951  192.349  188.356  184.888  188.620  190.218  183.754  175.264  168.926  163.301  158.291  160.603  160.589  160.542  158.672  159.181  158.672  153.617  153.422  151.595  149.183  149.079  149.368  148.138  146.821  144.790  144.103  142.409  144.864  143.736  144.448  144.537  143.315  143.408  141.917  144.810  143.966  143.979  144.483  141.818  142.471  144.447  141.675  142.825  142.185  144.358  142.900  143.225  142.645  143.965  143.808  143.053  142.954  141.521  144.116  145.115  144.959  143.007  143.965  147.498  143.650  142.590  141.919  142.474  141.751  145.848  141.588  142.003  142.293  143.582  143.592  144.325  142.922  144.081  142.505  143.938  144.051  145.552  141.259  145.087  145.623  142.457  142.877  141.893  143.396  143.811 
DATE 2017:074:10:32:54 obsn   6 az 131 el 28 freq_MHz  1420.4000 Tsys 127.050 Tant 19.774 vlsr  -43.33 glat -0.200 glon 20.118 azoff 0.00 eloff 0.00 source G20.0 
Fstart 1419.397 fstop 1421.403 spacing 0.009375 bw    2.400 fbw    2.000 MHz nfreq 256 nsam 5242880 npoint 214 integ    12 sigma    0.379 bsw 0
Spectrum     11 integration periods
 141.669  140.575  141.137  141.336  140.714  140.415  140.699  141.795  140.610  140.681  141.408  142.203  140.718  140.770  140.931  141.682  140.578  140.782  140.892  140.650  141.291  140.380  141.224  141.124  140.672  140.824  141.571  140.933  140.940  140.968  140.787  140.655  140.585  140.567  141.239  140.639  140.414  140.913  140.205  140.578  139.858  140.314  139.593  139.787  140.041  140.180  140.730  140.927  140.734  140.728  141.217  140.029  140.729  140.211  140.291  141.195  140.907  141.101  141.145  140.929  140.406  141.051  141.350  142.024  140.621  140.610  141.565  143.183  142.824  151.704  150.303  144.072  143.296  141.658  142.177  143.050  143.009  142.709  143.326  143.544  143.424  143.500  142.544  143.437  143.252  143.219  143.557  143.697  142.800  144.467  143.618  143.264  142.994  143.745  143.649  143.695  143.918  143.536  143.703  144.176  144.750  144.165  144.759  144.995  144.848  145.787  145.817  146.581  147.377  147.072  147.908  149.243  149.839  150.828  152.297  153.262  155.490  159.221  161.259  163.800  167.223  171.444  175.140  179.770  183.862  184.506  184.810  183.620  183.137  181.910  178.350  178.107  182.814  186.610  189.247  181.633  166.229  157.073  153.749  152.913  151.520  150.563  150.525  150.901  150.068  150.231  150.418  150.446  150.406  149.338  149.256  149.419  148.845  148.052  148.256  146.097  143.784  143.435  143.407  142.778  141.886  142.028  142.133  141.855  141.221  141.839  141.223  140.555  140.828  141.838  141.591  140.690  141.249  141.650  141.175  141.174  140.330  140.965  141.675  141.014  140.808  141.360  141.266  141.958  141.631  141.112  142.122  142.719  141.168  141.259  141.881  140.967  142.409  141.425  141.214  141.812  141.282  141.787  141.740  142.088  141.335  141.971  141.738  142.293  141.654  143.852  143.491  142.268  141.602  141.041  141.322  142.024  142.791  142.088 
DATE 2017:074:10:33:07 obsn   7 az 131 el 28 freq_MHz  1420.4000 Tsys 127.050 Tant 20.102 vlsr  -43.33 glat -0.200 glon 20.118 azoff 0.00 eloff 0.00 source G20.0 
Fstart 1419.397 fstop 1421.403 spacing 0.009375 bw    2.400 fbw    2.000 MHz nfreq 256 nsam 5242880 npoint 214 integ    23 sigma    0.274 bsw 0
Spectrum     21 integration periods
 141.315  140.591  140.897  141.460  140.383  140.661  140.927  141.452  140.962  141.063  141.679  141.799  140.673  140.788  141.097  141.330  140.465  140.893  140.952  140.959  141.334  140.262  141.076  141.006  140.984  140.799  141.375  140.809  141.117  141.104  140.475  140.648  140.315  140.568  140.866  140.032  140.286  140.762  140.206  140.150  139.715  140.660  140.079  139.973  140.102  140.458  140.112  140.741  140.714  140.353  140.575  139.954  140.226  140.449  140.553  140.952  140.610  141.109  141.098  140.570  140.573  140.896  140.982  142.060  140.706  140.743  141.419  143.131  142.677  150.431  151.365  143.727  142.973  142.043  142.449  142.821  143.216  142.961  143.455  143.220  143.268  143.368  142.719  143.699  143.231  143.469  143.451  143.629  143.518  144.306  143.373  143.377  143.445  143.752  143.604  143.473  144.030  143.769  143.939  144.025  144.614  144.330  144.668  145.131  145.562  146.301  146.218  146.845  147.098  147.577  148.318  149.299  150.033  150.722  152.255  153.726  155.709  158.884  161.237  163.954  166.903  171.490  175.924  180.234  183.837  184.493  183.855  183.351  183.020  182.070  178.500  178.327  182.507  186.707  189.088  182.055  166.435  156.716  153.341  152.705  150.973  150.259  150.305  150.298  149.748  149.936  150.136  150.179  150.298  149.905  149.831  149.661  149.658  148.080  148.299  146.162  144.685  143.677  143.573  142.646  142.203  142.029  142.145  141.797  141.049  141.414  141.264  140.804  141.013  141.895  141.589  140.919  140.979  141.494  141.578  141.485  140.339  141.071  141.110  141.136  141.521  141.229  141.624  141.524  141.649  141.045  141.917  142.010  141.359  141.084  142.048  141.497  141.880  141.496  141.049  141.788  141.413  141.789  141.748  141.694  141.209  141.633  141.748  142.502  141.859  143.935  143.913  142.076  141.899  141.416  141.675  142.213  142.342  142.222 
DATE 2017:074:10:33:34 obsn   8 az 120 el 32 freq_MHz  1420.4000 Tsys 127.050 Tant 20.074 vlsr  -42.99 glat -0.188 glon 30.118 azoff 0.00 eloff 0.00 source G30.0 
Fstart 1419.397 fstop 1421.403 spacing 0.009375 bw    2.400 fbw    2.000 MHz nfreq 256 nsam 5242880 npoint 214 integ     5 sigma    0.561 bsw 0
Spectrum      5 integration periods
