DATE 2017:074:10:50:48 obsn  49 az 154 el 21 freq_MHz  1420.4000 Tsys 127.050 Tant 22.916 vlsr  -40.08 glat -0.205 glon  0.117 azoff 0.00 eloff 0.00 source G0.0 
Fstart 1419.397 fstop 1421.403 spacing 0.009375 bw    2.400 fbw    2.000 MHz nfreq 256 nsam 5242880 npoint 214 integ     8 sigma    0.475 bsw 0
Spectrum      7 integration periods
 167.434  168.648  168.017  168.170  167.505  167.701  167.270  168.532  168.695  168.268  166.753  168.102  167.033  168.028  168.468  166.661  166.115  167.183  167.752  167.909  166.743  165.676  166.857  166.782  167.816  167.238  166.840  166.521  168.014  167.661  166.871  167.376  166.932  165.898  167.005  166.179  166.023  167.483  166.453  165.988  171.079  167.321  167.667  166.743  166.743  167.203  166.943  166.763  165.420  167.242  168.065  166.670  167.122  166.552  167.847  167.897  177.686  168.734  167.102  167.947  166.994  169.275  168.544  169.180  167.940  168.523  169.384  168.897  170.441  186.456  188.768  177.052  167.904  169.275  167.733  168.412  167.465  167.425  167.291  167.632  167.375  167.705  167.594  167.960  168.991  167.614  167.827  170.595  168.479  169.657  169.222  168.377  167.962  167.561  168.162  169.095  170.030  169.436  169.244  168.425  170.012  168.891  168.682  176.439  171.418  171.268  169.883  169.326  169.957  170.586  170.700  169.738  169.867  169.542  170.588  171.386  173.776  173.485  175.084  174.049  175.578  176.828  180.134  181.432  184.869  189.713  196.193  201.202  207.393  212.487  209.833  207.140  211.850  222.348  230.407  213.201  204.471  197.408  192.154  188.568  185.601  183.704  182.508  178.450  177.165  177.375  177.581  174.643  173.648  173.811  174.069  171.606  170.786  170.617  171.336  173.611  171.875  171.282  173.017  170.558  171.118  169.961  169.945  169.582  169.637  170.788  170.676  171.319  169.864  171.516  170.147  170.171  169.610  170.804  170.974  169.522  170.023  170.620  170.912  171.056  171.553  175.277  171.777  171.969  172.761  169.495  169.845  169.940  171.546  170.826  170.301  170.897  169.744  170.364  170.972  170.788  171.471  169.623  169.399  170.079  170.779  169.373  170.320  172.162  170.284  171.069  172.134  170.852  170.030  170.368  170.442  171.670  172.828  171.165 
DATE 2017:074:10:51:01 obsn  50 az 154 el 21 freq_MHz  1420.4000 Tsys 127.050 Tant 22.714 vlsr  -40.08 glat -0.205 glon  0.117 azoff 0.00 eloff 0.00 source G0.0 
Fstart 1419.397 fstop 1421.403 spacing 0.009375 bw    2.400 fbw    2.000 MHz nfreq 256 nsam 5242880 npoint 214 integ    19 sigma    0.305 bsw 0
Spectrum     17 integration periods
 153.564  153.765  153.834  154.171  153.920  153.581  153.755  154.998  154.046  154.666  153.411  153.871  153.352  153.882  154.040  153.838  153.618  153.086  153.783  154.045  153.819  153.000  152.986  153.283  153.894  153.945  153.344  153.807  154.265  154.035  154.144  153.783  153.468  153.136  153.237  152.796  153.386  153.741  152.971  152.564  154.682  154.052  153.540  153.012  153.509  153.076  153.205  153.741  152.707  153.877  154.224  153.059  153.521  152.998  153.933  154.645  157.892  154.440  154.276  154.115  153.545  154.883  154.872  155.485  154.091  154.649  155.230  155.015  156.406  173.634  174.072  162.231  154.604  154.774  154.519  155.283  154.422  154.245  154.287  154.121  154.068  154.197  154.121  154.548  155.118  154.539  154.490  155.808  154.993  155.867  155.121  154.969  155.212  154.717  154.584  154.897  155.687  155.685  155.351  155.290  155.439  154.776  155.806  158.670  155.903  155.959  155.364  155.142  155.390  156.794  155.814  156.320  156.534  156.430  157.483  158.113  159.010  159.639  161.783  160.880  162.514  164.188  167.730  168.915  172.806  178.215  184.893  190.385  197.157  202.895  200.907  196.519  202.276  212.824  215.125  203.965  194.309  185.930  179.760  176.253  172.779  170.831  168.619  165.870  164.586  163.640  162.852  160.583  159.906  159.409  159.240  158.249  158.149  157.547  157.773  159.304  157.378  157.366  157.951  157.012  157.576  156.369  156.521  156.517  155.940  157.283  156.263  157.045  156.498  156.835  156.371  156.322  156.287  157.275  156.663  155.984  155.832  156.461  156.318  156.367  156.302  158.083  157.407  156.831  157.089  155.994  156.092  155.936  156.302  156.018  156.212  156.795  156.163  156.200  156.863  156.425  156.236  155.763  155.683  156.410  156.854  155.474  155.958  157.552  156.131  157.484  157.527  157.142  156.342  156.382  156.500  156.579  158.100  157.251 
DATE 2017:074:10:51:25 obsn  51 az 145 el 26 freq_MHz  1420.4000 Tsys 127.050 Tant 23.012 vlsr  -42.34 glat -0.205 glon 10.118 azoff 0.00 eloff 0.00 source G10.0 
Fstart 1419.397 fstop 1421.403 spacing 0.009375 bw    2.400 fbw    2.000 MHz nfreq 256 nsam 5242880 npoint 214 integ     1 sigma    1.256 bsw 0
Spectrum      1 integration periods
 147.237  142.740  142.664  142.066  142.796  144.383  145.845  144.051  143.907  143.139  142.104  142.573  146.434  143.115  144.733  144.904  144.580  143.382  143.719  145.400  145.137  143.763  145.217  143.289  143.718  144.769  144.773  144.009  144.616  142.174  145.282  146.488  144.846  147.655  146.557  142.323  142.073  144.247  146.316  146.165  143.283  142.963  145.243  143.742  143.178  140.992  144.736  142.446  142.917  143.036  142.955  146.668  143.410  146.604  145.954  145.762  144.751  141.952  146.283  147.967  145.030  146.263  145.540  145.803  141.762  143.973  144.479  148.106  145.387  161.597  163.770  149.886  144.870  146.713  145.126  144.418  143.601  146.894  147.415  147.095  143.542  145.680  142.968  145.714  144.540  145.969  144.440  145.636  145.726  144.227  145.210  144.532  146.751  144.530  144.413  144.306  147.104  144.640  143.126  144.864  144.042  144.805  147.347  145.289  146.176  146.185  144.987  145.316  144.761  147.763  146.407  145.147  145.948  147.133  147.294  148.210  147.572  150.220  151.278  152.814  153.354  158.244  159.282  162.834  167.883  171.222  180.230  186.928  191.382  197.388  195.296  191.767  196.611  205.613  204.407  195.188  188.267  175.181  172.346  166.414  164.291  162.913  158.557  158.051  155.841  151.868  149.412  153.537  149.204  149.455  148.070  149.287  148.778  148.677  147.551  145.569  147.409  148.620  147.303  144.958  148.758  148.035  145.620  146.948  148.470  148.211  145.471  146.624  146.507  146.942  146.143  148.206  146.021  147.673  148.892  147.376  146.422  143.816  147.182  146.269  145.734  144.639  149.298  145.685  144.435  143.125  147.651  146.634  143.593  145.747  145.218  147.256  146.357  144.547  145.138  145.827  148.383  147.153  146.385  145.952  145.294  143.240  145.290  148.607  144.781  148.461  148.022  146.548  148.315  147.128  145.770  151.514  149.023  147.170 
DATE 2017:074:10:51:38 obsn  52 az 145 el 26 freq_MHz  1420.4000 Tsys 127.050 Tant 21.494 vlsr  -42.34 glat -0.205 glon 10.118 azoff 0.00 eloff 0.00 source G10.0 
Fstart 1419.397 fstop 1421.403 spacing 0.009375 bw    2.400 fbw    2.000 MHz nfreq 256 nsam 5242880 npoint 214 integ    12 sigma    0.379 bsw 0
Spectrum     11 integration periods
 144.304  142.560  143.018  142.924  143.196  142.697  143.823  143.477  144.361  143.393  143.253  142.803  143.854  144.108  143.159  143.782  142.875  143.056  143.823  142.738  143.403  143.620  144.385  143.432  143.676  143.997  144.095  143.711  143.602  143.166  142.749  143.937  143.705  142.924  143.868  142.609  142.473  142.856  143.510  142.915  143.122  143.096  143.751  143.284  142.462  142.972  142.900  142.650  143.514  142.963  142.825  143.596  142.370  144.319  143.215  143.556  143.524  143.510  144.184  143.030  143.563  143.019  143.298  144.623  143.776  143.396  143.130  144.606  144.597  159.867  150.584  155.268  143.940  143.927  143.665  143.520  143.659  143.450  143.856  143.431  142.923  143.214  143.506  144.131  143.709  143.257  143.341  143.950  143.373  143.322  143.893  143.974  143.689  143.957  143.328  142.961  144.138  143.605  143.580  144.416  144.652  144.799  145.099  145.524  145.852  146.655  145.974  146.517  147.610  147.795  148.290  149.068  150.006  151.277  152.036  152.848  153.966  156.306  158.432  161.197  164.593  168.330  172.169  175.974  179.426  183.750  186.973  190.787  192.460  192.925  189.332  186.240  187.419  193.234  188.044  176.498  169.326  165.604  162.857  160.752  160.804  160.048  158.537  158.197  155.561  153.896  151.969  151.476  149.748  147.627  147.020  145.789  145.420  145.185  144.524  145.860  144.174  144.519  144.140  143.281  143.394  143.412  143.031  142.845  143.365  143.413  143.125  143.103  143.385  142.951  143.193  143.017  142.451  143.481  143.516  142.865  143.170  142.577  143.524  142.945  142.684  143.400  142.746  142.924  143.134  143.195  142.800  143.226  142.932  143.616  142.778  143.160  142.544  142.438  142.922  143.633  143.603  143.817  142.691  143.438  143.100  142.722  143.042  143.604  143.035  144.741  144.610  142.799  143.058  142.637  143.041  143.757  143.503  143.777 
DATE 2017:074:10:51:52 obsn  53 az 145 el 26 freq_MHz  1420.4000 Tsys 127.050 Tant 21.630 vlsr  -42.34 glat -0.205 glon 10.118 azoff 0.00 eloff 0.00 source G10.0 
Fstart 1419.397 fstop 1421.403 spacing 0.009375 bw    2.400 fbw    2.000 MHz nfreq 256 nsam 5242880 npoint 214 integ    23 sigma    0.274 bsw 0
Spectrum     21 integration periods
 144.180  142.958  143.358  143.071  143.381  143.037  143.507  143.482  144.301  143.445  143.372  142.871  143.600  143.511  143.501  143.359  143.168  143.371  143.627  142.872  143.544  143.672  143.955  143.452  143.569  143.790  143.864  143.479  143.466  143.210  143.327  143.609  143.439  143.319  143.440  142.717  142.639  142.970  143.152  142.880  142.894  143.386  143.598  143.156  142.882  143.026  143.157  142.523  143.267  142.703  143.026  143.214  143.120  143.895  143.382  143.571  143.819  143.516  144.341  143.409  143.637  143.013  143.295  144.324  143.499  143.365  143.469  144.702  144.854  158.592  149.181  155.802  143.930  144.046  143.947  144.088  143.400  143.410  143.957  143.118  143.218  142.893  143.398  144.063  143.563  143.550  143.428  143.495  143.295  143.431  143.915  143.443  143.741  143.693  143.549  143.714  143.786  143.663  143.513  144.054  144.444  144.467  144.748  145.445  145.581  146.413  146.099  146.621  147.408  147.590  148.419  149.187  150.241  151.434  152.521  153.127  154.918  156.732  159.143  161.433  164.822  168.478  172.695  176.170  180.293  184.107  188.144  190.820  192.829  193.502  189.677  185.751  187.140  192.391  186.844  175.713  168.766  164.680  162.376  160.990  160.975  160.120  159.020  157.558  155.967  154.002  152.614  151.136  149.383  147.971  147.021  145.853  145.507  145.060  144.590  144.962  144.136  143.927  143.599  143.243  143.369  143.454  142.369  142.898  143.145  143.278  143.047  142.894  142.932  143.174  143.135  142.822  142.231  143.146  142.681  142.696  143.171  142.406  143.352  142.710  142.800  143.347  143.033  143.020  142.935  142.923  142.527  143.369  143.467  143.271  142.668  142.672  142.643  142.476  143.014  143.209  143.122  143.946  142.872  143.489  142.997  142.549  142.967  143.159  143.170  144.560  144.224  142.510  142.944  142.889  142.870  143.169  143.224  143.528 
DATE 2017:074:10:52:18 obsn  54 az 135 el 31 freq_MHz  1420.4000 Tsys 127.050 Tant 21.299 vlsr  -43.33 glat -0.200 glon 20.118 azoff 0.00 eloff 0.00 source G20.0 
Fstart 1419.397 fstop 1421.403 spacing 0.009375 bw    2.400 fbw    2.000 MHz nfreq 256 nsam 5242880 npoint 214 integ     5 sigma    0.561 bsw 0
Spectrum      5 integration periods
 142.422  142.160  142.072  141.519  143.226  142.109  141.260  142.173  142.190  142.062  141.963  141.243  142.017  142.434  141.733  142.516  142.627  143.569  141.486  141.932  141.756  143.335  143.274  141.838  142.483  143.205  142.186  142.176  142.905  141.922  141.052  141.375  141.188  141.342  141.449  141.739  142.374  141.101  142.046  142.464  142.156  142.663  141.884  142.326  142.114  140.921  140.734  142.280  142.519  141.830  142.121  140.934  141.585  141.524  144.168  141.664  141.642  142.474  141.968  141.601  142.434  142.128  143.683  144.066  142.728  141.720  142.422  144.513  145.991  160.692  145.940  148.022  144.270  143.529  143.758  146.578  143.834  144.031  144.857  145.185  145.895  143.870  144.533  145.120  146.020  145.080  144.563  144.546  144.901  145.113  144.717  145.775  145.646  145.690  144.843  144.582  147.697  146.859  146.129  146.221  145.177  145.826  145.553  146.643  147.812  148.276  148.578  149.312  147.767  149.393  149.807  151.454  150.988  152.412  153.774  154.503  158.761  158.645  163.359  165.170  168.725  172.135  175.684  181.577  183.632  183.923  184.556  187.814  185.535  184.431  181.332  180.479  184.726  188.997  189.711  181.376  169.680  158.428  157.861  155.685  153.425  153.230  152.837  152.240  151.758  150.519  150.068  151.552  151.092  150.104  149.998  150.105  150.733  149.939  146.868  147.647  145.311  146.254  145.103  143.240  142.815  142.819  143.637  143.026  142.402  141.739  142.764  142.267  142.724  142.721  141.638  141.855  142.320  142.891  142.899  142.130  141.670  143.326  142.141  141.771  141.386  141.945  143.257  141.967  143.251  142.127  143.865  142.308  142.481  142.902  143.437  142.448  143.449  142.377  143.118  142.447  144.256  143.307  141.556  141.570  143.055  142.958  143.657  143.049  143.165  143.855  143.459  143.437  142.907  142.957  143.112  143.104  142.295  142.390 
DATE 2017:074:10:52:32 obsn  55 az 135 el 31 freq_MHz  1420.4000 Tsys 127.050 Tant 21.126 vlsr  -43.33 glat -0.200 glon 20.118 azoff 0.00 eloff 0.00 source G20.0 
Fstart 1419.397 fstop 1421.403 spacing 0.009375 bw    2.400 fbw    2.000 MHz nfreq 256 nsam 5242880 npoint 214 integ    16 sigma    0.324 bsw 0
Spectrum     15 integration periods
 141.635  141.457  141.724  141.748  142.115  141.734  141.695  142.286  142.055  141.618  141.554  141.918  141.895  141.505  141.079  142.285  142.956  142.290  141.663  141.805  142.134  143.069  142.322  141.933  142.100  142.269  141.627  141.992  142.573  141.913  140.864  141.692  141.529  142.021  141.712  141.190  142.051  141.391  141.412  142.026  141.751  141.915  141.459  140.985  141.232  140.922  141.162  141.313  141.528  141.443  141.836  141.045  141.756  141.413  142.744  141.581  142.005  142.666  142.756  142.339  142.115  141.614  143.532  142.963  141.677  141.991  142.427  144.440  144.971  160.919  147.678  146.261  143.293  143.241  144.185  145.188  144.171  144.229  144.728  144.912  145.466  145.403  144.960  144.913  145.678  145.146  144.181  145.011  144.752  145.750  145.222  145.791  145.580  145.394  145.366  144.848  146.607  147.133  145.847  145.871  146.082  146.423  145.879  147.252  147.766  148.179  148.029  148.574  148.422  149.611  149.692  150.775  151.627  152.858  154.335  155.246  157.784  160.728  163.436  165.358  168.730  172.364  176.276  181.075  183.994  184.306  184.280  185.039  183.879  183.059  180.550  179.817  184.229  188.636  190.283  182.220  169.250  157.832  155.076  153.817  151.837  151.969  151.408  151.684  151.572  151.067  151.385  150.747  151.117  150.935  150.781  150.767  151.643  149.730  147.740  147.900  145.819  146.164  144.819  144.049  143.501  142.700  143.286  142.765  142.224  142.133  142.724  142.237  142.193  142.306  141.971  142.544  142.201  142.749  142.395  142.463  141.807  142.837  142.088  142.621  142.118  141.888  143.397  142.103  142.645  142.697  143.530  141.441  142.669  141.998  142.951  142.208  143.057  142.351  142.960  142.364  143.250  142.367  141.653  142.807  143.137  142.634  142.643  142.950  142.952  143.716  143.663  142.604  142.708  142.436  142.653  143.171  142.839  143.055 
DATE 2017:074:10:52:45 obsn  56 az 135 el 31 freq_MHz  1420.4000 Tsys 127.050 Tant 21.309 vlsr  -43.33 glat -0.200 glon 20.118 azoff 0.00 eloff 0.00 source G20.0 
Fstart 1419.397 fstop 1421.403 spacing 0.009375 bw    2.400 fbw    2.000 MHz nfreq 256 nsam 5242880 npoint 214 integ    27 sigma    0.251 bsw 0
Spectrum     25 integration periods
 141.712  141.549  141.594  141.949  142.034  141.845  141.925  142.185  141.930  141.902  141.611  141.697  141.997  141.893  141.431  141.739  142.866  142.569  141.943  141.691  142.104  142.351  141.750  141.980  142.109  141.950  141.545  141.987  142.493  141.850  141.074  141.565  141.360  141.890  141.779  141.126  141.726  141.512  141.445  141.638  141.574  141.796  141.223  140.798  141.185  141.089  141.059  141.279  141.236  141.294  141.889  141.319  141.550  141.489  142.666  142.007  141.943  142.450  142.369  142.200  142.251  141.959  143.395  142.965  141.729  142.031  142.770  144.283  144.733  161.229  147.766  145.662  143.356  143.629  144.441  145.068  144.567  144.580  144.814  144.717  145.779  145.264  145.039  145.482  145.816  145.433  144.769  145.482  145.128  145.518  145.382  145.709  145.779  145.819  145.511  145.111  146.722  147.076  146.130  146.341  146.108  146.390  146.403  147.483  147.929  148.661  148.017  148.627  148.733  149.770  149.796  150.968  151.729  153.135  154.543  155.581  157.864  160.780  163.580  165.833  169.068  172.750  176.505  181.173  184.329  184.922  184.834  184.440  183.713  182.923  180.356  180.078  184.753  188.281  190.610  182.691  168.967  157.866  154.919  153.395  151.689  152.270  151.406  151.436  151.403  151.060  151.458  151.148  151.890  151.367  151.072  151.136  151.599  150.063  148.501  147.907  145.961  145.866  144.463  143.959  143.630  142.693  143.255  142.822  142.359  142.343  142.304  141.941  142.083  142.327  142.050  142.696  141.787  142.817  142.194  142.736  141.729  142.485  142.090  142.608  142.268  141.891  143.782  142.494  142.742  142.751  143.379  142.590  142.758  142.237  143.230  142.246  143.037  142.871  142.865  142.490  143.348  142.571  141.814  142.778  142.691  142.829  142.966  143.289  142.839  143.482  143.548  142.436  142.554  142.736  142.577  143.233  142.961  143.184 
DATE 2017:074:10:53:12 obsn  57 az 124 el 35 freq_MHz  1420.4000 Tsys 127.050 Tant 20.879 vlsr  -42.99 glat -0.188 glon 30.118 azoff 0.00 eloff 0.00 source G30.0 
Fstart 1419.397 fstop 1421.403 spacing 0.009375 bw    2.400 fbw    2.000 MHz nfreq 256 nsam 5242880 npoint 214 integ    11 sigma    0.397 bsw 0
Spectrum     10 integration periods
