DATE 2017:074:10:40:49 obsn  25 az 152 el 20 freq_MHz  1420.4000 Tsys 127.050 Tant 22.471 vlsr  -40.08 glat -0.205 glon  0.117 azoff 0.00 eloff 0.00 source G0.0 
Fstart 1419.397 fstop 1421.403 spacing 0.009375 bw    2.400 fbw    2.000 MHz nfreq 256 nsam 5242880 npoint 214 integ     9 sigma    0.444 bsw 0
Spectrum      8 integration periods
 165.021  166.051  165.547  165.291  165.777  165.100  165.809  165.840  165.255  166.720  165.551  164.720  165.778  165.306  164.243  164.559  164.497  165.920  165.211  166.119  165.645  165.188  165.691  164.806  164.793  165.030  165.476  165.007  163.994  164.652  165.203  164.217  165.204  165.457  163.696  163.377  164.327  164.019  165.586  163.938  167.740  165.084  164.523  163.739  164.138  164.903  164.302  164.619  164.686  164.706  163.980  164.244  164.828  165.605  165.067  164.187  173.193  165.451  165.304  165.379  165.474  165.704  165.611  166.092  164.583  165.141  165.430  165.541  167.524  188.257  167.727  171.390  166.462  165.054  165.524  165.452  165.572  165.345  164.909  166.537  165.413  165.635  164.793  165.675  164.755  165.149  165.188  167.987  164.867  166.038  164.833  164.408  165.444  164.332  164.510  166.837  165.866  165.705  165.667  166.411  165.454  166.427  166.528  172.481  167.504  166.449  165.945  166.668  165.997  166.725  165.644  166.149  167.116  166.596  166.776  168.209  170.248  169.691  171.970  170.924  172.982  174.671  175.080  178.085  181.140  185.524  191.843  198.179  204.781  209.722  207.320  205.003  209.916  219.214  223.951  211.137  202.871  194.530  189.401  184.495  181.906  181.104  178.720  175.669  173.431  172.806  172.569  171.207  171.588  169.879  169.213  169.589  169.383  166.655  168.052  167.938  167.344  165.966  168.974  166.473  166.691  166.008  166.158  165.883  166.589  165.753  165.697  166.471  166.929  166.152  166.113  166.810  165.698  166.293  166.550  166.049  166.786  165.828  166.986  166.127  165.963  169.804  166.720  166.358  167.041  167.015  165.969  165.752  165.870  166.778  165.839  165.982  165.582  167.160  166.178  164.918  166.829  166.062  167.251  166.509  166.386  165.811  166.115  166.261  165.762  169.691  169.820  166.286  166.764  165.172  167.248  166.668  167.498  166.440 
DATE 2017:074:10:41:02 obsn  26 az 152 el 20 freq_MHz  1420.4000 Tsys 127.050 Tant 22.824 vlsr  -40.08 glat -0.205 glon  0.117 azoff 0.00 eloff 0.00 source G0.0 
Fstart 1419.397 fstop 1421.403 spacing 0.009375 bw    2.400 fbw    2.000 MHz nfreq 256 nsam 5242880 npoint 214 integ    20 sigma    0.296 bsw 0
Spectrum     18 integration periods
 153.836  154.160  153.539  153.606  154.325  153.764  154.453  154.251  154.208  154.762  154.344  154.160  154.285  154.134  154.026  153.724  153.776  154.286  153.901  154.168  154.492  154.211  154.404  153.850  153.830  154.000  154.356  153.351  153.156  153.648  154.196  153.246  153.070  153.480  153.258  152.955  152.898  153.597  153.660  153.298  155.187  153.574  153.775  153.035  153.423  153.414  153.395  153.259  152.929  153.416  153.018  153.392  153.370  154.271  153.662  153.826  157.666  154.240  153.720  154.065  154.179  154.101  154.584  154.783  153.281  154.257  153.877  153.927  155.957  177.024  157.845  158.781  154.544  153.560  154.213  153.955  154.599  154.500  153.884  154.562  154.312  154.225  153.991  154.004  153.787  153.943  154.070  155.214  154.021  154.058  154.181  153.511  153.948  153.971  154.092  155.199  153.995  154.191  154.093  154.695  153.981  153.796  154.217  157.154  155.253  154.718  154.337  154.928  154.728  155.008  154.628  155.163  155.617  156.141  156.006  156.919  158.457  158.370  160.228  160.221  161.977  163.950  165.283  168.007  171.072  176.226  182.793  189.552  196.428  201.756  199.836  196.270  201.828  212.213  212.951  203.015  194.472  185.366  179.158  174.383  171.247  169.840  167.400  165.314  162.948  162.002  161.054  159.842  159.712  158.418  157.427  157.953  157.087  155.763  156.455  156.091  155.477  154.876  156.219  155.504  155.496  154.437  154.881  154.772  154.916  154.734  154.462  154.672  155.332  154.695  154.516  155.089  154.737  155.036  155.092  154.525  154.893  154.366  154.922  154.514  154.045  156.070  154.646  154.978  154.773  154.762  154.434  153.990  154.044  154.870  154.081  154.424  153.907  154.826  154.369  153.920  155.197  154.341  155.080  154.541  154.398  154.184  154.503  154.689  154.584  158.210  157.220  154.522  154.842  154.294  154.805  154.738  155.458  154.629 
DATE 2017:074:10:41:26 obsn  27 az 143 el 25 freq_MHz  1420.4000 Tsys 127.050 Tant 21.427 vlsr  -42.34 glat -0.205 glon 10.118 azoff 0.00 eloff 0.00 source G10.0 
Fstart 1419.397 fstop 1421.403 spacing 0.009375 bw    2.400 fbw    2.000 MHz nfreq 256 nsam 5242880 npoint 214 integ     2 sigma    0.888 bsw 0
Spectrum      2 integration periods
 145.282  143.731  144.381  144.793  144.157  142.716  143.667  144.943  144.475  145.006  145.923  145.138  144.399  144.223  144.679  143.344  143.611  145.107  144.433  145.091  144.138  144.874  143.832  141.872  145.623  143.490  142.415  145.477  144.408  144.052  144.983  144.191  142.395  146.341  141.471  141.935  145.398  145.544  142.463  144.021  142.583  143.481  144.831  143.075  145.166  142.814  142.729  143.668  145.770  143.528  143.584  144.943  144.428  144.946  142.909  146.198  145.600  144.443  145.628  142.604  143.162  144.549  145.650  145.093  145.449  144.100  144.063  144.128  144.989  173.164  148.379  150.117  143.711  145.051  143.600  146.317  144.483  143.345  145.626  144.217  145.034  143.367  145.006  144.729  145.867  145.121  144.387  144.391  142.432  144.671  146.550  144.868  145.250  144.273  144.499  142.261  143.196  144.846  143.669  144.412  144.117  143.273  145.234  144.726  146.151  145.244  146.651  146.460  145.305  148.372  147.150  147.235  148.091  151.849  150.498  149.315  153.166  152.433  154.164  157.433  158.918  162.508  164.126  167.601  171.197  175.715  181.434  184.981  189.045  194.804  194.794  187.629  190.832  198.807  196.313  184.611  179.149  171.792  167.806  160.751  161.108  160.705  157.763  155.064  154.317  153.685  152.023  150.212  149.687  147.963  146.537  148.180  144.145  147.914  146.277  146.577  145.100  145.664  146.292  145.697  143.682  145.008  145.932  146.160  143.114  146.442  144.971  145.526  144.709  144.124  142.820  144.314  143.058  144.352  143.707  144.143  142.938  143.055  143.844  143.874  143.376  143.221  142.754  145.197  143.995  144.021  143.963  145.072  142.501  143.106  143.692  143.747  144.081  143.446  143.268  142.281  143.678  144.228  142.977  143.549  143.405  144.143  145.732  145.604  144.085  143.541  145.322  143.649  144.946  145.195  144.376  143.124  143.439  144.344 
DATE 2017:074:10:41:39 obsn  28 az 143 el 25 freq_MHz  1420.4000 Tsys 127.050 Tant 21.508 vlsr  -42.34 glat -0.205 glon 10.118 azoff 0.00 eloff 0.00 source G10.0 
Fstart 1419.397 fstop 1421.403 spacing 0.009375 bw    2.400 fbw    2.000 MHz nfreq 256 nsam 5242880 npoint 214 integ    13 sigma    0.362 bsw 0
Spectrum     12 integration periods
 142.606  142.477  142.392  143.135  143.102  143.675  142.990  143.694  143.734  144.022  143.419  143.594  143.505  143.847  143.140  142.874  142.974  143.339  143.283  143.575  143.987  143.660  143.498  143.135  143.986  143.128  142.826  143.092  143.690  143.173  143.612  143.049  142.699  142.991  142.413  142.309  143.249  142.792  143.061  142.990  143.275  143.538  143.043  143.402  143.394  143.601  142.901  142.839  143.446  143.311  143.120  143.086  143.296  142.674  143.226  143.554  144.461  144.433  144.502  143.542  143.254  144.046  143.788  145.209  143.907  143.217  143.391  144.314  145.610  172.309  146.918  150.425  145.004  144.466  144.614  144.833  143.496  143.439  143.545  144.300  144.854  143.570  143.592  143.994  144.087  142.927  143.415  144.351  143.178  143.761  144.650  143.679  144.327  143.941  143.605  144.014  144.271  143.514  144.100  144.370  144.341  144.258  145.148  144.957  144.756  145.339  145.334  146.302  146.461  147.536  148.124  149.084  149.429  150.953  151.369  152.200  154.370  155.306  157.387  159.972  162.751  167.508  170.418  174.366  177.472  181.953  185.567  189.088  191.497  193.104  190.417  186.078  186.983  191.686  188.438  177.268  169.146  164.823  161.668  160.596  159.369  158.811  157.672  156.558  154.289  153.534  151.856  150.223  148.985  147.921  146.809  146.439  145.043  145.314  144.859  144.908  144.450  144.314  143.795  144.737  143.546  144.231  144.068  143.493  142.812  144.332  143.935  143.342  143.986  143.920  143.314  143.038  143.079  143.153  142.831  143.020  143.406  143.112  143.558  143.447  143.452  142.740  143.114  143.300  143.475  143.464  143.912  143.494  142.429  143.570  143.112  143.347  143.102  142.844  143.399  142.624  143.151  142.806  143.010  143.269  143.425  143.728  143.588  143.474  143.064  144.360  144.440  143.163  142.544  143.166  142.440  143.316  143.717  143.623 
DATE 2017:074:10:41:52 obsn  29 az 143 el 25 freq_MHz  1420.4000 Tsys 127.050 Tant 22.152 vlsr  -42.34 glat -0.205 glon 10.118 azoff 0.00 eloff 0.00 source G10.0 
Fstart 1419.397 fstop 1421.403 spacing 0.009375 bw    2.400 fbw    2.000 MHz nfreq 256 nsam 5242880 npoint 214 integ    24 sigma    0.268 bsw 0
Spectrum     22 integration periods
 143.063  142.660  142.289  143.198  142.873  143.111  143.020  143.610  143.272  143.930  143.388  143.063  143.311  143.846  143.425  143.217  143.136  143.296  143.497  143.773  144.009  143.480  143.283  143.197  143.842  143.322  143.014  143.212  143.413  143.342  143.682  143.055  142.693  142.887  142.197  142.499  143.083  142.828  142.946  143.099  143.677  143.565  142.859  143.320  143.482  143.817  142.958  143.027  143.411  143.329  143.090  143.148  143.048  142.888  143.225  143.585  144.307  143.854  144.116  143.641  143.242  143.530  144.009  145.505  143.581  143.341  143.679  144.520  145.551  172.229  147.207  150.391  145.131  144.234  144.143  144.465  143.683  143.530  143.613  144.489  144.497  143.070  143.514  144.133  144.300  143.501  143.671  144.479  143.846  143.886  144.332  144.144  144.224  143.805  143.626  143.934  144.159  143.844  144.246  144.691  144.687  144.678  144.753  145.015  145.078  146.022  145.699  146.438  146.842  147.722  148.308  149.112  149.724  151.280  151.420  152.500  154.272  156.028  157.987  160.116  163.767  167.778  171.173  174.497  177.714  182.423  186.223  189.326  191.492  192.394  189.896  186.534  187.038  191.663  188.049  175.972  168.387  164.282  161.256  159.975  159.429  158.780  157.767  156.802  154.723  153.646  152.040  150.834  149.254  147.867  147.103  146.336  145.664  145.427  145.018  144.996  144.517  144.198  143.771  144.376  144.016  144.126  143.778  143.765  143.268  144.139  143.658  143.621  143.705  144.010  143.184  143.079  143.159  143.284  143.198  142.935  143.395  143.154  143.453  143.266  142.924  143.022  143.320  143.514  143.461  143.153  143.594  143.254  143.069  143.610  143.160  143.340  143.563  143.060  143.335  142.681  143.706  142.924  143.298  143.357  143.513  143.184  143.173  143.141  143.420  144.221  144.092  143.228  142.843  143.088  142.542  143.432  143.917  143.639 
DATE 2017:074:10:42:19 obsn  30 az 133 el 29 freq_MHz  1420.4000 Tsys 127.050 Tant 21.283 vlsr  -43.33 glat -0.200 glon 20.118 azoff 0.00 eloff 0.00 source G20.0 
Fstart 1419.397 fstop 1421.403 spacing 0.009375 bw    2.400 fbw    2.000 MHz nfreq 256 nsam 5242880 npoint 214 integ     7 sigma    0.513 bsw 0
Spectrum      6 integration periods
 141.736  142.030  141.356  142.921  141.274  142.323  142.339  142.517  142.244  141.375  141.991  141.246  141.183  141.550  142.074  143.073  142.239  140.764  141.803  143.166  142.205  142.058  141.386  142.251  142.601  140.652  140.721  141.877  142.127  140.972  141.064  141.521  141.905  142.282  142.252  140.844  141.495  141.276  140.954  140.936  140.777  142.364  141.389  140.930  140.357  141.741  141.537  140.942  140.037  140.955  141.902  141.700  141.727  140.977  140.522  141.672  141.201  143.216  142.536  142.289  141.659  142.026  142.842  143.570  142.259  142.507  142.286  144.961  145.183  156.425  151.854  146.097  145.018  144.087  144.763  143.724  144.322  144.988  143.601  144.235  144.881  144.450  143.744  144.497  144.956  145.090  144.938  145.657  145.042  144.322  144.942  144.876  145.302  144.308  145.778  145.584  145.968  146.564  146.429  145.937  146.442  146.882  146.666  147.393  148.245  148.496  148.508  149.325  149.513  150.349  151.378  150.251  152.333  152.573  154.776  155.816  158.509  160.647  164.506  167.454  171.086  175.088  177.924  182.074  184.653  186.541  186.781  187.465  185.119  184.031  181.333  183.169  183.844  188.907  189.009  182.102  167.284  159.506  156.421  154.456  153.609  152.680  153.378  151.900  152.680  152.685  151.868  153.369  152.685  152.027  152.140  151.408  151.139  148.907  147.775  147.300  145.737  145.333  145.188  143.557  144.613  142.486  142.637  141.570  142.272  142.689  142.944  141.327  142.713  142.267  142.371  143.220  142.214  143.266  142.077  142.016  142.179  142.341  142.578  142.944  143.574  143.023  143.585  142.503  142.372  141.640  142.635  142.727  142.984  142.770  142.969  141.917  142.516  142.379  143.434  142.662  142.861  142.639  142.172  142.862  143.184  142.873  143.636  144.436  142.809  143.743  144.985  142.896  142.969  143.781  143.150  143.807  143.404  143.816 
DATE 2017:074:10:42:32 obsn  31 az 133 el 29 freq_MHz  1420.4000 Tsys 127.050 Tant 21.295 vlsr  -43.33 glat -0.200 glon 20.118 azoff 0.00 eloff 0.00 source G20.0 
Fstart 1419.397 fstop 1421.403 spacing 0.009375 bw    2.400 fbw    2.000 MHz nfreq 256 nsam 5242880 npoint 214 integ    17 sigma    0.314 bsw 0
Spectrum     16 integration periods
 141.447  141.628  141.055  142.224  141.678  142.124  141.558  142.110  141.712  141.388  141.886  141.135  141.272  141.228  141.802  141.954  142.251  141.051  141.282  142.217  141.395  141.346  141.259  141.812  141.518  141.284  141.716  141.714  142.770  141.408  141.333  141.616  141.456  141.534  141.386  140.960  141.193  141.761  140.614  140.923  140.792  141.783  141.079  140.961  140.655  140.883  141.346  141.185  141.041  140.815  141.611  140.657  140.947  140.425  140.591  141.740  141.395  142.264  141.999  141.802  141.900  141.631  142.245  142.942  141.922  142.147  142.264  144.345  144.281  154.742  150.873  145.816  144.062  143.574  144.646  144.414  144.363  144.361  144.210  144.766  144.960  144.274  144.461  144.729  145.385  145.078  144.657  145.195  145.265  145.113  145.444  145.086  145.140  145.047  145.366  146.145  146.411  146.296  146.500  146.486  146.413  146.640  146.488  147.936  148.559  148.799  149.082  150.073  149.413  150.902  151.758  151.089  152.747  153.843  155.479  156.483  159.247  161.770  165.720  168.534  171.712  175.312  179.119  182.450  186.556  187.094  187.261  186.232  185.063  183.791  181.213  181.733  184.353  188.192  189.911  182.464  167.406  159.208  156.273  154.611  152.972  152.787  152.773  151.940  152.357  152.539  152.366  153.443  153.049  152.816  153.093  152.123  152.045  149.982  148.571  147.313  145.885  144.837  144.869  143.464  143.711  142.905  143.284  142.167  142.182  142.321  142.668  142.470  142.039  142.613  142.549  143.073  142.017  143.091  142.470  142.101  142.194  142.264  142.517  142.937  143.086  142.770  143.398  142.973  142.472  142.205  143.406  142.022  142.725  142.671  143.144  142.483  143.062  142.058  143.161  142.998  142.933  143.493  142.339  143.334  143.206  142.914  143.281  143.820  142.825  143.617  143.729  142.994  142.755  143.871  143.412  143.434  143.920  143.587 
DATE 2017:074:10:43:07 obsn  32 az 122 el 33 freq_MHz  1420.4000 Tsys 127.050 Tant 21.399 vlsr  -42.99 glat -0.188 glon 30.118 azoff 0.00 eloff 0.00 source G30.0 
Fstart 1419.397 fstop 1421.403 spacing 0.009375 bw    2.400 fbw    2.000 MHz nfreq 256 nsam 5242880 npoint 214 integ     7 sigma    0.513 bsw 0
Spectrum      6 integration periods
 141.175  141.109  141.506  141.011  140.407  140.676  140.864  142.111  141.478  141.979  140.823  140.961  139.864  140.678  141.415  141.288  141.658  141.617  142.030  141.320  141.146  142.007  141.070  142.316  141.762  140.509  140.036  141.327  139.870  141.449  141.292  140.725  141.174  141.154  140.479  141.506  140.535  140.596  140.503  140.531  140.916  141.305  140.483  140.083  140.655  140.074  141.345  139.920  140.524  140.006  141.309  140.490  141.118  140.944  142.311  141.348  141.916  140.137  140.404  140.611  140.739  141.315  141.880  141.276  141.356  141.167  140.672  142.120  142.573  144.753  147.349  143.062  143.114  142.531  141.290  142.845  141.742  142.408  143.612  144.300  144.982  146.240  146.515  146.040  146.704  147.349  148.421  149.517  148.196  148.855  148.284  148.808  149.366  148.727  148.615  148.773  148.244  149.548  149.133  149.894  149.093  149.247  149.807  150.802  150.447  150.681  151.108  151.975  152.117  153.992  154.681  154.139  155.157  158.005  158.110  158.351  158.693  159.094  162.708  163.670  165.110  169.282  172.284  174.742  176.727  178.020  180.379  180.725  181.687  182.546  182.229  181.820  183.291  186.309  183.919  175.025  162.319  152.965  149.397  148.362  147.434  146.889  147.235  147.139  147.855  148.492  148.841  148.391  149.215  150.942  150.752  151.660  151.905  151.870  152.708  154.334  153.493  153.573  152.209  152.086  150.414  148.579  146.252  144.866  144.341  143.630  143.213  142.359  141.980  142.448  141.478  142.150  142.397  141.819  142.058  141.732  140.710  141.606  141.369  142.270  141.154  141.542  142.452  142.901  142.272  141.827  141.333  141.391  140.542  142.005  142.038  141.451  140.572  141.307  142.084  140.925  142.043  142.052  141.527  140.452  141.722  141.385  140.412  141.449  142.063  141.875  141.794  142.477  141.658  141.618  140.568  142.270  142.241  141.585 
DATE 2017:074:10:43:20 obsn  33 az 122 el 33 freq_MHz  1420.4000 Tsys 127.050 Tant 21.315 vlsr  -42.99 glat -0.188 glon 30.118 azoff 0.00 eloff 0.00 source G30.0 
Fstart 1419.397 fstop 1421.403 spacing 0.009375 bw    2.400 fbw    2.000 MHz nfreq 256 nsam 5242880 npoint 214 integ    17 sigma    0.314 bsw 0
Spectrum     16 integration periods
