* calibration started
* cmd out of limits az 10.000000 el 10.000000
* cmd out of limits az 10.000000 el 10.000000
* cmd out of limits az 10.000000 el 10.000000
DATE 2015:273:16:00:00 obsn   0 az  17 el -2 freq_MHz  1420.4000 Tsys 171.000 Tant 461.099 vlsr  -13.86 glat -1.919 glon 105.243 source at_stow
Fstart 1419.397 fstop 1421.403 spacing 0.009375 bw    2.400 fbw    2.000 MHz nfreq 256 nsam 5242880 npoint 214 integ     3 sigma    0.976 bsw 0
Spectrum      3 integration periods
 464.257  460.963  455.891  460.172  459.250  456.218  458.039  461.283  467.487  464.305  466.518  462.428  467.826  466.349  467.030  462.596  463.370  458.567  464.509  462.070  457.595  458.039  462.347  456.081  461.898  465.293  456.224  458.839  460.722  453.289  460.416  460.108  455.717  459.147  459.808  457.505  456.852  456.973  457.893  465.447  460.840  458.792  459.722  462.967  460.322  460.471  461.527  461.858  462.787  463.330  464.503  463.712  464.870  465.122  465.765  462.605  465.062  457.881  464.315  461.245  460.929  458.025  462.210  455.103  459.900  457.440  453.526  460.870  463.301  462.555  462.780  460.776  463.680  461.375  462.203  466.526  465.639  465.201  462.378  462.037  462.163  461.325  461.735  460.859  457.340  459.504  460.834  463.986  458.169  462.285  455.095  459.032  463.189  467.416  464.440  462.801  460.570  457.507  457.808  458.571  458.272  462.115  461.542  466.325  458.587  456.835  460.108  460.713  455.131  464.341  460.596  464.656  463.262  457.693  465.206  461.472  461.464  459.338  459.578  459.680  459.964  456.747  458.988  461.475  463.239  462.355  459.933  461.911  457.656  460.903  460.476  463.354  458.600  458.991  464.985  457.621  458.986  460.194  459.114  459.269  460.580  458.634  460.149  457.035  461.527  463.536  458.261  453.014  461.379  457.465  459.628  457.688  462.784  462.883  463.968  462.946  464.018  463.369  464.511  463.781  463.230  459.679  461.631  461.879  461.872  458.360  458.974  457.933  464.885  462.759  462.582  462.812  459.438  456.660  457.027  462.942  461.968  459.188  461.598  460.140  461.978  460.917  462.666  466.527  458.330  460.736  459.765  460.714  463.186  458.557  461.590  460.670  462.640  459.403  460.506  462.603  458.393  458.303  459.458  462.421  462.596  458.777  463.330  458.730  458.076  461.672  457.663  457.431  460.306  462.723  462.200  459.535  462.889  453.958 
* cmd out of limits az 10.000000 el 10.000000
* cmd out of limits az 10.000000 el 10.000000
* cmd out of limits az 10.000000 el 10.000000
* cmd out of limits az 10.000000 el 10.000000
* cmd out of limits az 10.000000 el 10.000000
* cmd out of limits az 10.000000 el 10.000000
* cmd out of limits az 10.000000 el 10.000000
* cmd out of limits az 10.000000 el 10.000000
* cmd out of limits az 10.000000 el 10.000000
* cmd out of limits az 10.000000 el 10.000000
DATE 2015:273:16:00:00 obsn   1 az  17 el -2 freq_MHz  1420.4000 Tsys 171.000 Tant 289.980 vlsr  -13.86 glat -1.919 glon 105.243 source at_stow
Fstart 1419.397 fstop 1421.403 spacing 0.009375 bw    2.400 fbw    2.000 MHz nfreq 256 nsam 5242880 npoint 214 integ    14 sigma    0.469 bsw 0
Spectrum     13 integration periods
 458.535  459.365  460.850  461.648  461.413  459.886  459.834  460.854  460.409  460.555  461.239  460.857  460.842  461.360  461.549  460.033  461.154  458.870  462.258  460.072  460.469  460.853  462.437  460.631  461.803  460.222  460.414  461.400  459.816  458.097  460.919  461.399  461.641  460.528  460.857  459.068  460.391  459.128  462.356  462.638  461.027  460.276  460.556  461.230  459.299  461.882  461.854  461.175  461.560  461.964  463.104  462.603  463.859  463.244  462.719  462.897  463.557  459.836  461.931  460.984  460.866  459.564  457.620  455.324  458.025  457.603  455.953  459.252  461.181  461.126  460.654  461.453  462.453  462.986  462.113  463.528  463.180  462.815  463.016  461.994  461.012  462.289  461.841  460.879  460.579  460.412  461.101  461.456  459.791  462.029  459.825  461.515  461.113  462.564  462.412  459.822  459.776  458.391  459.654  460.884  460.243  461.271  459.660  460.869  460.432  459.853  460.339  461.770  459.758  460.798  459.011  460.584  462.025  458.555  463.262  461.499  461.675  460.665  460.373  460.748  459.543  459.674  461.392  460.809  461.894  461.571  461.318  460.888  461.492  461.332  460.516  462.327  460.557  462.312  464.902  462.002  463.097  461.618  460.354  460.026  459.423  459.536  462.294  461.317  462.706  462.259  460.202  458.333  460.094  461.151  459.592  456.344  462.007  461.800  461.148  462.731  461.132  459.930  461.380  462.021  463.208  460.769  461.471  462.088  461.694  460.303  462.133  460.532  462.222  460.134  460.651  461.239  460.311  459.834  462.844  462.729  462.984  462.033  459.958  458.996  459.874  461.590  461.048  461.383  461.637  460.047  462.167  460.268  460.967  460.942  460.884  459.130  459.624  460.469  460.540  462.709  460.805  460.450  459.675  462.694  462.384  462.569  461.808  459.294  460.560  462.334  461.464  459.694  462.315  460.115  460.736  459.416  462.671  460.372 
* cmd out of limits az 10.000000 el 10.000000
* cmd out of limits az 10.000000 el 10.000000
* cmd out of limits az 10.000000 el 10.000000
* cmd out of limits az 10.000000 el 10.000000
* cmd out of limits az 10.000000 el 10.000000
* cmd out of limits az 10.000000 el 10.000000
* cmd out of limits az 10.000000 el 10.000000
* cmd out of limits az 10.000000 el 10.000000
* cmd out of limits az 10.000000 el 10.000000
* cmd out of limits az 10.000000 el 10.000000
DATE 2015:273:16:00:00 obsn   2 az  17 el -2 freq_MHz  1420.4000 Tsys 171.000 Tant 290.095 vlsr  -13.86 glat -1.919 glon 105.243 source at_stow
Fstart 1419.397 fstop 1421.403 spacing 0.009375 bw    2.400 fbw    2.000 MHz nfreq 256 nsam 5242880 npoint 214 integ    25 sigma    0.352 bsw 0
Spectrum     23 integration periods
 457.647  458.973  461.164  461.479  460.819  460.890  460.914  461.327  461.046  460.383  460.664  461.757  460.703  460.883  461.829  460.774  460.798  459.370  462.943  462.143  461.120  461.511  460.850  459.961  462.266  460.110  460.755  460.529  460.180  459.193  461.070  462.397  461.205  459.630  461.725  460.038  460.760  460.000  461.194  462.083  460.811  461.723  461.125  460.081  459.113  460.782  461.404  460.157  459.948  461.271  462.120  462.084  462.965  463.896  463.131  462.667  462.888  460.198  461.255  460.833  460.165  460.372  457.951  456.043  457.933  457.648  456.816  460.052  460.490  461.038  460.476  461.215  462.422  461.923  461.268  463.180  463.458  462.273  462.964  462.143  460.779  462.768  461.962  461.618  460.777  461.102  461.187  462.121  459.920  461.896  461.015  461.189  461.467  462.391  461.371  460.534  459.374  459.293  459.653  460.744  460.329  462.024  460.643  460.048  460.153  459.663  460.253  461.510  459.620  459.239  458.947  460.159  461.186  460.303  460.782  461.184  461.371  460.696  460.709  460.507  460.921  460.516  461.024  461.965  461.635  460.552  461.496  461.287  461.388  461.346  460.663  461.936  460.764  462.936  463.327  461.439  463.770  461.805  460.845  460.766  460.490  459.496  461.935  461.459  461.499  462.515  460.854  458.823  460.749  460.449  459.996  458.535  460.836  462.056  460.078  461.900  460.994  461.016  462.078  462.053  462.474  461.470  460.745  461.525  462.244  460.774  462.827  461.887  462.388  459.744  461.036  461.403  461.542  460.692  461.227  460.608  461.361  461.192  459.473  460.170  461.018  460.571  462.070  460.852  460.507  459.953  462.465  459.848  459.599  460.905  460.786  459.870  460.309  460.167  460.852  460.586  461.396  460.488  460.382  462.142  461.381  461.621  462.266  460.383  462.711  462.248  461.779  459.803  462.120  459.761  460.118  458.436  461.162  461.776 
* cmd out of limits az 10.000000 el 10.000000
* cmd out of limits az 10.000000 el 10.000000
* cmd out of limits az 10.000000 el 10.000000
* cmd out of limits az 10.000000 el 10.000000
* cmd out of limits az 10.000000 el 10.000000
* cmd out of limits az 10.000000 el 10.000000
* cmd out of limits az 10.000000 el 10.000000
* cmd out of limits az 10.000000 el 10.000000
* cmd out of limits az 10.000000 el 10.000000
* cmd out of limits az 10.000000 el 10.000000
DATE 2015:273:16:00:00 obsn   3 az  17 el -2 freq_MHz  1420.4000 Tsys 171.000 Tant 290.653 vlsr  -13.86 glat -1.919 glon 105.243 source at_stow
Fstart 1419.397 fstop 1421.403 spacing 0.009375 bw    2.400 fbw    2.000 MHz nfreq 256 nsam 5242880 npoint 214 integ    36 sigma    0.294 bsw 0
Spectrum     33 integration periods
 456.873  459.621  461.614  461.635  460.927  460.341  460.886  460.917  460.936  460.369  460.974  461.287  460.140  460.735  461.732  461.350  461.135  460.123  462.497  462.736  461.389  462.205  460.515  459.631  462.392  460.105  460.721  460.285  459.866  459.380  460.832  462.138  461.308  460.648  461.299  461.390  460.694  460.231  461.207  461.841  460.442  462.087  460.882  460.038  459.197  461.513  461.075  460.438  459.805  461.082  462.277  462.065  462.280  462.628  462.450  462.976  462.469  460.652  461.431  460.251  459.381  459.800  458.207  457.021  457.706  457.582  457.360  460.198  460.785  461.373  460.490  460.303  461.732  461.697  461.444  463.515  463.739  462.681  461.911  461.596  461.844  462.687  461.477  462.078  461.074  461.084  460.395  461.877  460.394  461.514  460.811  460.734  461.331  461.812  461.297  459.848  459.258  459.403  460.032  460.581  460.856  461.115  461.666  460.170  460.073  459.612  460.246  461.018  459.580  459.734  459.546  459.990  461.088  460.798  460.235  461.365  460.681  460.824  461.359  461.118  460.411  460.831  460.234  461.213  461.822  460.400  461.335  460.825  461.367  461.041  460.950  461.813  461.078  462.746  463.143  461.843  463.098  462.337  460.236  461.503  460.473  460.225  461.820  461.394  461.861  461.947  460.903  459.836  460.233  460.362  460.161  460.119  460.621  460.899  460.620  461.266  460.614  461.511  461.948  461.865  461.944  461.122  461.089  461.739  461.963  461.563  462.339  461.670  462.477  459.372  461.578  461.230  462.323  460.121  461.283  460.753  461.641  461.478  459.743  459.867  461.176  460.131  461.806  461.046  460.472  459.954  462.742  459.613  459.520  459.828  460.375  459.742  460.532  460.722  461.383  460.333  461.632  460.659  460.094  462.084  460.447  461.385  461.633  460.360  462.490  462.107  461.265  460.090  461.340  459.029  459.617  459.713  460.573  461.801 
* cmd out of limits az 10.000000 el 10.000000
* cmd out of limits az 10.000000 el 10.000000
* cmd out of limits az 10.000000 el 10.000000
* cmd out of limits az 10.000000 el 10.000000
* cmd out of limits az 10.000000 el 10.000000
* cmd out of limits az 10.000000 el 10.000000
* cmd out of limits az 10.000000 el 10.000000
* cmd out of limits az 10.000000 el 10.000000
* cmd out of limits az 10.000000 el 10.000000
* cmd out of limits az 10.000000 el 10.000000
DATE 2015:273:16:00:00 obsn   4 az  17 el -2 freq_MHz  1420.4000 Tsys 171.000 Tant 290.309 vlsr  -13.86 glat -1.919 glon 105.243 source at_stow
Fstart 1419.397 fstop 1421.403 spacing 0.009375 bw    2.400 fbw    2.000 MHz nfreq 256 nsam 5242880 npoint 214 integ    47 sigma    0.258 bsw 0
Spectrum     43 integration periods
 456.995  459.528  461.695  461.572  461.025  460.213  460.278  460.870  460.587  460.403  460.966  460.784  459.993  461.203  461.823  460.901  461.054  460.293  462.215  462.426  461.761  461.576  460.292  459.833  461.639  459.950  460.119  460.407  459.897  459.891  461.584  461.210  460.925  461.243  461.447  461.863  461.125  459.645  460.687  461.177  460.466  461.706  460.875  460.060  459.347  462.160  461.002  460.353  460.793  461.364  461.860  461.798  462.452  462.759  462.533  462.206  462.351  460.584  461.288  459.894  459.913  458.981  458.126  457.963  457.879  457.542  457.685  460.040  461.058  461.099  460.000  461.068  461.814  461.494  461.188  463.216  463.485  462.511  462.092  461.792  461.954  462.300  461.609  462.545  461.391  461.440  460.651  462.272  460.354  460.735  461.166  460.676  460.785  461.639  461.544  460.254  459.389  460.413  460.222  460.277  460.945  460.972  461.182  460.080  459.709  460.289  460.496  461.066  459.361  459.942  460.471  459.909  461.276  460.781  460.232  461.553  460.607  460.514  461.137  461.481  460.373  461.083  460.314  460.670  461.422  460.922  461.692  460.605  461.195  461.151  461.030  461.773  461.264  462.522  463.192  461.750  462.776  462.353  460.732  461.459  461.202  460.857  462.296  461.727  462.145  462.281  460.868  460.033  460.049  460.066  460.290  459.974  460.835  460.656  460.797  461.185  460.798  461.267  461.806  461.445  461.532  461.214  461.184  461.795  461.878  462.376  462.467  461.248  461.832  459.682  461.387  461.053  462.342  460.593  461.309  460.921  461.723  461.571  460.821  460.585  461.557  460.016  461.394  461.227  460.612  459.583  461.451  459.542  459.301  459.709  460.227  460.235  460.743  460.748  461.063  460.219  461.786  460.884  459.832  461.942  460.829  461.744  461.854  460.604  462.014  462.555  460.964  460.387  461.388  459.799  459.399  459.786  461.029  462.050 
* cmd out of limits az 10.000000 el 10.000000
DATE 2015:273:16:00:00 obsn   5 az 262 el 12 freq_MHz  1420.4000 Tsys 171.000 Tant  1.902 vlsr  -11.57 glat  0.166 glon 210.104 source G210 
Fstart 1419.397 fstop 1421.403 spacing 0.009375 bw    2.400 fbw    2.000 MHz nfreq 256 nsam 5242880 npoint 214 integ     9 sigma    0.597 bsw 0
Spectrum      8 integration periods
 206.556  208.622  208.013  208.910  210.296  209.075  209.504  209.455  209.630  208.292  208.212  208.477  210.759  208.964  209.462  208.390  208.673  209.042  208.025  208.806  208.547  208.707  209.027  208.416  208.301  209.366  208.610  209.709  208.794  210.382  208.924  208.117  207.755  208.658  210.278  210.166  209.555  209.193  208.553  209.420  207.066  209.061  207.468  209.028  208.418  208.400  209.830  209.469  208.021  209.245  209.224  209.775  209.870  209.020  209.473  208.421  210.624  209.652  209.428  209.103  207.576  208.057  207.151  208.069  207.762  206.667  208.684  207.977  207.505  208.908  208.680  209.761  209.490  209.900  209.201  209.325  208.604  210.678  210.889  209.849  207.989  208.961  210.211  209.072  209.951  208.124  208.235  209.078  207.305  210.097  208.692  209.998  207.416  209.056  209.981  208.941  208.788  208.414  208.486  208.903  210.120  209.522  207.504  209.323  209.041  208.292  209.224  208.602  208.988  207.740  209.072  208.120  207.654  209.037  208.841  207.649  208.882  210.674  209.584  207.923  208.892  207.871  209.604  208.568  209.567  208.846  209.313  209.771  209.938  208.736  209.189  208.616  209.267  208.664  208.358  208.885  209.603  210.911  208.375  207.800  209.531  210.584  209.489  209.052  209.003  207.839  210.258  208.562  207.700  207.789  208.726  208.759  208.369  210.044  208.677  209.390  208.552  209.257  209.067  210.690  209.800  208.356  207.433  209.553  209.526  209.635  210.105  209.723  210.022  208.273  209.026  208.265  209.161  210.137  208.743  208.868  210.156  210.183  209.318  209.565  209.496  209.391  208.316  209.496  208.809  208.523  208.695  208.461  206.822  207.628  210.599  208.794  208.670  208.510  207.472  209.014  209.636  210.698  207.939  208.096  208.667  209.182  210.576  209.702  208.121  209.184  208.668  208.019  207.985  208.300  209.449  207.652  208.896  210.083 
DATE 2015:273:16:00:00 obsn   6 az 262 el 12 freq_MHz  1420.4000 Tsys 171.000 Tant  1.761 vlsr  -11.57 glat  0.166 glon 210.104 source G210 
Fstart 1419.397 fstop 1421.403 spacing 0.009375 bw    2.400 fbw    2.000 MHz nfreq 256 nsam 5242880 npoint 214 integ    20 sigma    0.398 bsw 0
Spectrum     18 integration periods
 186.817  188.697  188.596  188.953  189.411  189.136  189.050  189.252  188.800  188.068  188.392  188.969  189.849  188.603  189.279  188.878  189.291  188.946  188.957  188.785  188.730  189.157  188.840  188.116  188.250  188.911  188.200  188.653  188.693  189.944  188.298  188.265  188.624  188.259  189.751  189.279  189.061  189.854  188.706  188.993  187.723  189.186  188.342  189.128  188.687  187.893  188.821  189.112  188.692  189.033  188.821  188.994  189.309  188.989  188.889  188.838  190.254  189.386  189.300  189.073  187.812  188.590  187.928  188.107  187.595  186.875  188.035  187.881  188.694  188.734  188.341  189.340  189.426  189.969  189.116  189.207  189.338  189.553  189.775  189.708  189.257  189.391  189.710  189.428  190.202  188.521  189.169  188.825  187.964  189.027  188.567  189.544  188.222  188.848  189.594  188.793  188.439  188.059  188.745  188.699  189.536  189.307  188.151  188.691  188.848  188.308  188.752  188.475  188.450  188.061  189.056  187.692  188.398  188.250  188.345  188.515  188.533  189.287  189.475  188.828  189.069  187.815  188.811  188.814  189.762  188.512  189.209  189.419  189.265  188.927  188.933  189.044  189.099  188.787  188.823  189.223  189.591  189.814  188.977  188.663  189.248  189.874  188.903  188.850  188.481  188.352  189.550  188.205  188.078  187.705  188.177  189.014  188.719  189.432  188.613  188.830  188.770  188.909  188.809  189.653  189.178  188.597  188.177  189.206  189.369  189.042  189.410  188.483  188.557  189.064  188.957  188.090  188.836  189.175  188.415  188.523  189.497  189.484  188.814  189.437  189.238  188.709  188.716  189.103  188.956  188.349  188.490  188.442  187.183  187.911  189.217  188.590  188.420  188.778  187.547  188.781  189.245  189.488  188.747  188.458  188.852  188.966  189.858  189.229  188.663  189.309  189.235  188.141  188.471  188.234  189.007  188.430  188.759  189.313 
DATE 2015:273:16:00:00 obsn   7 az 262 el 12 freq_MHz  1420.4000 Tsys 171.000 Tant  1.772 vlsr  -11.57 glat  0.166 glon 210.104 source G210 
Fstart 1419.397 fstop 1421.403 spacing 0.009375 bw    2.400 fbw    2.000 MHz nfreq 256 nsam 5242880 npoint 214 integ    31 sigma    0.319 bsw 0
Spectrum     28 integration periods
