DATE 2017:041:19:00:37 obsn   0 az  37 el 43 freq_MHz  1420.4000 Tsys 171.000 Tant 11.103 vlsr   17.25 glat -0.880 glon 132.120 source S7 
Fstart 1419.397 fstop 1421.403 spacing 0.009375 bw    2.400 fbw    2.000 MHz nfreq 256 nsam 5242880 npoint 214 integ   121 sigma    0.160 bsw 0
Spectrum    111 integration periods
 179.846  180.652  181.775  181.976  182.355  182.616  182.261  182.706  182.284  182.637  182.764  182.143  182.077  181.901  181.957  181.889  181.893  181.385  181.337  181.592  181.432  181.400  181.598  181.646  181.920  181.438  181.485  181.586  182.149  181.734  181.897  182.204  182.029  182.467  182.440  182.176  183.232  182.711  182.634  182.580  182.367  182.452  182.304  182.272  182.382  181.887  181.853  182.024  181.990  181.466  181.172  180.955  180.885  180.691  180.548  180.161  179.930  179.957  179.597  179.465  178.783  178.421  178.346  178.696  178.242  177.802  177.616  177.273  178.820  177.431  177.744  182.227  177.113  177.100  176.949  176.815  177.035  176.923  176.861  177.111  177.020  177.460  177.717  177.581  177.570  177.877  177.883  178.474  178.933  179.274  179.187  179.102  179.462  179.813  179.711  180.172  180.777  181.189  182.028  184.104  187.568  192.013  200.375  209.625  214.572  217.494  221.533  222.758  222.924  219.509  215.055  211.119  207.997  204.857  201.067  198.188  196.630  195.743  195.844  196.329  197.895  199.835  202.175  204.956  207.027  209.220  210.934  212.147  211.921  211.608  210.812  210.694  209.587  207.248  204.598  200.659  197.096  193.696  191.262  188.559  187.312  187.028  185.953  185.824  185.548  185.163  185.126  185.092  184.887  184.815  184.880  185.692  185.710  185.549  185.642  185.132  184.173  183.008  182.274  180.966  180.750  180.040  179.878  179.982  179.598  179.698  179.128  179.273  179.108  178.961  179.150  178.794  178.586  178.694  179.003  178.757  178.546  178.748  178.883  178.507  179.113  178.623  178.714  178.682  178.788  178.529  179.044  178.502  178.751  178.915  178.931  179.033  178.614  178.631  178.733  178.248  179.061  178.951  178.148  178.022  178.035  177.754  177.830  178.088  178.198  178.542  178.523  178.570  178.940  179.131  179.172  178.800  179.117  178.586 
DATE 2017:041:19:00:50 obsn   1 az  37 el 43 freq_MHz  1420.4000 Tsys 171.000 Tant 10.550 vlsr   17.25 glat -0.880 glon 132.120 source S7 
Fstart 1419.397 fstop 1421.403 spacing 0.009375 bw    2.400 fbw    2.000 MHz nfreq 256 nsam 5242880 npoint 214 integ   132 sigma    0.154 bsw 0
Spectrum    121 integration periods
 179.543  180.397  181.358  181.619  182.015  182.184  181.953  182.384  181.968  182.238  182.468  181.847  181.689  181.512  181.594  181.545  181.531  181.054  180.977  181.201  181.094  181.084  181.251  181.270  181.610  181.069  181.110  181.164  181.800  181.337  181.574  181.835  181.681  182.119  181.986  181.800  182.873  182.362  182.367  182.249  182.055  182.124  181.989  181.849  181.991  181.600  181.524  181.690  181.550  181.118  180.804  180.644  180.489  180.339  180.209  179.871  179.609  179.592  179.229  179.113  178.487  178.077  177.980  178.324  177.779  177.410  177.261  176.970  178.470  177.227  177.482  181.803  176.764  176.737  176.606  176.476  176.720  176.581  176.470  176.746  176.625  177.070  177.303  177.156  177.263  177.495  177.614  178.189  178.526  178.881  178.914  178.814  179.107  179.429  179.386  179.838  180.315  180.796  181.755  183.773  187.178  191.717  200.114  209.226  214.198  217.197  221.119  222.307  222.676  219.159  214.704  210.725  207.615  204.561  200.749  197.811  196.406  195.389  195.455  195.936  197.573  199.569  201.885  204.645  206.868  208.982  210.621  211.875  211.721  211.330  210.585  210.453  209.357  207.045  204.322  200.244  196.655  193.342  190.920  188.253  186.957  186.642  185.552  185.404  185.138  184.757  184.774  184.797  184.596  184.453  184.556  185.315  185.390  185.224  185.317  184.828  183.704  182.671  181.822  180.657  180.402  179.721  179.528  179.611  179.229  179.313  178.716  178.879  178.856  178.623  178.834  178.506  178.251  178.337  178.524  178.331  178.176  178.392  178.527  178.085  178.731  178.293  178.432  178.220  178.456  178.189  178.581  178.201  178.411  178.485  178.578  178.645  178.245  178.259  178.364  177.887  178.691  178.542  177.821  177.682  177.665  177.451  177.490  177.786  177.836  178.231  178.140  178.180  178.535  178.830  178.816  178.406  178.707  178.219 
DATE 2017:041:19:01:03 obsn   2 az  37 el 43 freq_MHz  1420.4000 Tsys 171.000 Tant 10.581 vlsr   17.25 glat -0.880 glon 132.120 source S7 
Fstart 1419.397 fstop 1421.403 spacing 0.009375 bw    2.400 fbw    2.000 MHz nfreq 256 nsam 5242880 npoint 214 integ   143 sigma    0.148 bsw 0
Spectrum    131 integration periods
 179.195  180.131  181.049  181.352  181.747  181.841  181.613  182.010  181.714  182.003  182.185  181.498  181.391  181.208  181.276  181.201  181.227  180.770  180.690  180.876  180.788  180.809  180.907  180.962  181.268  180.798  180.828  180.835  181.473  180.982  181.257  181.521  181.330  181.824  181.715  181.499  182.537  182.028  181.978  181.925  181.773  181.820  181.649  181.507  181.571  181.320  181.164  181.323  181.256  180.840  180.520  180.337  180.222  180.002  179.931  179.585  179.312  179.272  178.910  178.728  178.160  177.801  177.698  178.101  177.423  177.058  176.939  176.638  178.143  176.945  177.154  181.450  176.445  176.424  176.325  176.098  176.458  176.277  176.130  176.449  176.352  176.739  176.949  176.832  176.941  177.190  177.313  177.846  178.175  178.553  178.634  178.491  178.828  179.102  179.037  179.428  179.941  180.551  181.366  183.374  186.907  191.493  199.904  208.964  213.807  216.916  220.806  221.975  222.273  218.884  214.370  210.441  207.274  204.330  200.373  197.498  196.131  195.083  195.191  195.635  197.343  199.437  201.693  204.503  206.715  208.725  210.393  211.691  211.494  211.054  210.357  210.271  209.135  206.794  203.932  199.993  196.437  193.049  190.604  187.965  186.640  186.351  185.205  185.024  184.833  184.501  184.508  184.484  184.280  184.157  184.226  184.968  185.049  184.925  185.092  184.637  183.357  182.323  181.448  180.311  180.094  179.377  179.240  179.264  178.908  179.032  178.460  178.608  178.502  178.359  178.552  178.218  178.006  178.035  178.166  178.009  177.915  178.107  178.198  177.820  178.411  177.947  178.144  177.867  178.039  177.933  178.256  177.924  178.079  178.174  178.229  178.303  177.929  177.969  178.018  177.622  178.307  178.102  177.496  177.338  177.332  177.168  177.190  177.452  177.468  177.870  177.767  177.868  178.219  178.483  178.504  178.121  178.351  177.881 
DATE 2017:041:19:01:16 obsn   3 az  37 el 43 freq_MHz  1420.4000 Tsys 171.000 Tant  9.610 vlsr   17.25 glat -0.880 glon 132.120 source S7 
Fstart 1419.397 fstop 1421.403 spacing 0.009375 bw    2.400 fbw    2.000 MHz nfreq 256 nsam 5242880 npoint 214 integ   154 sigma    0.142 bsw 0
Spectrum    141 integration periods
 178.878  179.852  180.748  181.029  181.450  181.552  181.325  181.705  181.458  181.724  181.926  181.228  181.117  180.932  181.088  180.904  180.911  180.454  180.408  180.556  180.496  180.515  180.595  180.753  180.936  180.466  180.445  180.541  181.175  180.675  180.982  181.199  181.126  181.593  181.453  181.216  182.202  181.711  181.695  181.620  181.476  181.555  181.412  181.199  181.221  181.011  180.887  181.040  180.995  180.584  180.282  180.013  179.958  179.734  179.623  179.235  179.026  178.960  178.592  178.508  177.838  177.507  177.465  177.839  177.120  176.722  176.627  176.428  177.796  176.638  176.760  181.128  176.097  176.101  176.087  175.834  176.246  176.000  175.854  176.075  176.041  176.449  176.662  176.512  176.630  176.909  177.077  177.520  177.855  178.250  178.351  178.224  178.510  178.775  178.745  179.109  179.626  180.263  181.078  183.133  186.696  191.272  199.620  208.674  213.567  216.638  220.442  221.549  221.835  218.588  214.115  210.160  206.996  203.963  200.113  197.252  195.813  194.789  194.990  195.363  197.046  199.185  201.389  204.225  206.375  208.439  210.093  211.370  211.227  210.823  210.022  209.836  208.891  206.529  203.583  199.714  196.066  192.746  190.267  187.637  186.393  186.061  184.991  184.797  184.576  184.172  184.168  184.153  183.991  183.782  183.951  184.625  184.761  184.625  184.795  184.374  183.058  181.957  181.124  180.005  179.746  179.050  178.916  178.957  178.597  178.650  178.129  178.260  178.149  178.017  178.243  177.906  177.701  177.735  177.922  177.670  177.644  177.759  177.839  177.517  178.150  177.697  177.844  177.611  177.817  177.627  177.935  177.616  177.750  177.768  177.924  178.026  177.595  177.666  177.624  177.377  178.009  177.755  177.144  177.009  177.023  176.867  176.890  177.139  177.154  177.503  177.488  177.551  177.874  178.154  178.199  177.754  177.950  177.524 
DATE 2017:041:19:01:29 obsn   4 az  37 el 43 freq_MHz  1420.4000 Tsys 171.000 Tant  9.708 vlsr   17.25 glat -0.880 glon 132.120 source S7 
Fstart 1419.397 fstop 1421.403 spacing 0.009375 bw    2.400 fbw    2.000 MHz nfreq 256 nsam 5242880 npoint 214 integ   165 sigma    0.138 bsw 0
Spectrum    151 integration periods
 178.607  179.653  180.452  180.722  181.166  181.287  181.104  181.456  181.125  181.420  181.701  180.970  180.730  180.566  180.809  180.631  180.667  180.247  180.156  180.234  180.215  180.284  180.271  180.419  180.668  180.150  180.134  180.269  180.925  180.402  180.730  180.966  180.814  181.346  181.182  180.894  181.942  181.388  181.384  181.341  181.211  181.284  181.133  180.995  181.020  180.740  180.593  180.695  180.678  180.350  180.044  179.726  179.724  179.528  179.301  179.037  178.746  178.638  178.343  178.184  177.551  177.202  177.124  177.506  176.754  176.451  176.374  176.208  177.497  176.359  176.539  180.762  175.845  175.861  175.800  175.587  175.967  175.758  175.658  175.805  175.818  176.136  176.390  176.249  176.422  176.594  176.852  177.226  177.534  177.991  178.044  177.936  178.250  178.489  178.486  178.795  179.295  179.912  180.844  182.856  186.351  191.083  199.345  208.366  213.307  216.414  220.165  221.220  221.458  218.288  213.949  209.821  206.650  203.637  199.769  196.952  195.483  194.442  194.656  195.064  196.698  198.825  201.153  203.927  206.040  208.166  209.819  211.032  210.867  210.529  209.720  209.523  208.478  206.210  203.239  199.414  195.730  192.455  189.918  187.341  186.074  185.769  184.632  184.588  184.348  183.876  183.836  183.847  183.725  183.528  183.664  184.295  184.456  184.327  184.535  184.048  182.794  181.633  180.781  179.736  179.366  178.689  178.609  178.601  178.361  178.329  177.857  177.984  177.861  177.774  178.042  177.626  177.361  177.454  177.635  177.366  177.380  177.468  177.515  177.195  177.790  177.381  177.524  177.239  177.590  177.294  177.582  177.363  177.464  177.498  177.615  177.721  177.291  177.337  177.375  177.068  177.765  177.434  176.840  176.772  176.720  176.644  176.578  176.871  176.889  177.163  177.232  177.249  177.547  177.932  177.883  177.467  177.643  177.219 
DATE 2017:041:19:01:42 obsn   5 az  37 el 43 freq_MHz  1420.4000 Tsys 171.000 Tant  9.301 vlsr   17.25 glat -0.880 glon 132.120 source S7 
Fstart 1419.397 fstop 1421.403 spacing 0.009375 bw    2.400 fbw    2.000 MHz nfreq 256 nsam 5242880 npoint 214 integ   176 sigma    0.133 bsw 0
Spectrum    161 integration periods
 178.319  179.410  180.220  180.485  180.889  180.983  180.870  181.214  180.846  181.146  181.481  180.720  180.457  180.358  180.561  180.356  180.438  180.005  179.903  179.973  179.970  179.987  179.948  180.142  180.436  179.893  179.885  180.088  180.733  180.194  180.425  180.748  180.537  181.045  180.862  180.663  181.736  181.104  181.128  181.063  180.884  181.008  180.954  180.766  180.745  180.493  180.365  180.482  180.408  180.092  179.821  179.466  179.502  179.278  179.029  178.782  178.518  178.414  178.139  177.919  177.244  176.932  176.904  177.248  176.565  176.233  176.082  175.914  177.195  176.115  176.247  180.458  175.582  175.672  175.558  175.330  175.654  175.463  175.394  175.516  175.535  175.866  176.161  176.032  176.152  176.334  176.631  177.006  177.294  177.727  177.778  177.694  177.989  178.172  178.192  178.549  179.061  179.661  180.584  182.582  186.093  190.849  199.077  208.055  213.009  216.125  219.859  220.983  221.119  217.972  213.665  209.513  206.327  203.390  199.473  196.677  195.245  194.189  194.379  194.815  196.440  198.604  200.854  203.643  205.768  207.902  209.540  210.740  210.590  210.238  209.447  209.261  208.185  205.889  202.904  199.089  195.421  192.113  189.658  187.078  185.734  185.463  184.375  184.327  184.067  183.635  183.554  183.545  183.487  183.296  183.416  184.052  184.162  184.068  184.293  183.760  182.455  181.391  180.498  179.467  179.044  178.435  178.308  178.266  178.076  178.058  177.635  177.688  177.528  177.524  177.774  177.405  177.124  177.228  177.376  177.164  177.074  177.175  177.265  176.877  177.549  177.142  177.256  177.034  177.236  177.041  177.288  177.107  177.193  177.223  177.326  177.341  176.974  177.085  177.143  176.797  177.520  177.151  176.589  176.539  176.401  176.363  176.320  176.634  176.580  176.922  176.973  177.034  177.264  177.655  177.604  177.250  177.413  176.860 
DATE 2017:041:19:01:55 obsn   6 az  37 el 43 freq_MHz  1420.4000 Tsys 171.000 Tant  9.351 vlsr   17.25 glat -0.880 glon 132.120 source S7 
Fstart 1419.397 fstop 1421.403 spacing 0.009375 bw    2.400 fbw    2.000 MHz nfreq 256 nsam 5242880 npoint 214 integ   187 sigma    0.129 bsw 0
Spectrum    171 integration periods
 178.097  179.126  179.999  180.267  180.663  180.725  180.666  180.995  180.603  180.855  181.197  180.454  180.209  180.096  180.342  180.168  180.159  179.778  179.629  179.722  179.686  179.781  179.706  179.846  180.121  179.613  179.632  179.856  180.500  180.012  180.191  180.537  180.325  180.815  180.659  180.417  181.471  180.875  180.927  180.842  180.653  180.838  180.742  180.552  180.512  180.222  180.070  180.222  180.178  179.893  179.614  179.250  179.291  179.018  178.748  178.517  178.278  178.191  177.911  177.650  177.054  176.763  176.704  177.021  176.325  175.990  175.841  175.686  176.926  175.899  175.984  180.153  175.359  175.417  175.318  175.094  175.419  175.254  175.136  175.319  175.287  175.653  175.933  175.852  175.954  176.127  176.420  176.760  177.029  177.503  177.528  177.531  177.796  177.932  177.915  178.330  178.877  179.430  180.347  182.330  185.886  190.569  198.822  207.841  212.795  215.850  219.602  220.721  220.816  217.672  213.467  209.287  206.106  203.208  199.213  196.396  195.040  193.914  194.114  194.572  196.214  198.359  200.602  203.413  205.527  207.682  209.320  210.542  210.348  210.033  209.228  209.034  207.919  205.615  202.638  198.830  195.207  191.879  189.439  186.884  185.436  185.210  184.130  184.089  183.783  183.355  183.309  183.230  183.240  183.057  183.118  183.790  183.975  183.833  184.017  183.367  182.245  181.119  180.220  179.255  178.816  178.227  178.077  178.003  177.830  177.770  177.389  177.448  177.291  177.286  177.489  177.177  176.833  177.040  177.120  176.917  176.876  176.962  177.035  176.648  177.242  176.869  176.981  176.742  177.010  176.770  177.061  176.832  176.983  176.977  177.063  177.092  176.717  176.849  176.871  176.533  177.287  176.920  176.323  176.277  176.160  176.114  176.100  176.390  176.348  176.683  176.726  176.794  177.033  177.392  177.416  176.990  177.126  176.613 
DATE 2017:041:19:02:08 obsn   7 az  37 el 43 freq_MHz  1420.4000 Tsys 171.000 Tant  8.874 vlsr   17.25 glat -0.880 glon 132.120 source S7 
Fstart 1419.397 fstop 1421.403 spacing 0.009375 bw    2.400 fbw    2.000 MHz nfreq 256 nsam 5242880 npoint 214 integ   198 sigma    0.126 bsw 0
Spectrum    181 integration periods
 177.886  178.873  179.803  180.042  180.406  180.525  180.445  180.797  180.397  180.661  180.985  180.224  180.003  179.904  180.103  179.927  179.972  179.559  179.455  179.473  179.505  179.523  179.518  179.618  179.860  179.376  179.406  179.648  180.277  179.794  179.938  180.316  180.107  180.594  180.464  180.207  181.253  180.611  180.700  180.624  180.447  180.620  180.567  180.327  180.275  180.035  179.875  180.004  179.975  179.660  179.384  179.010  179.113  178.764  178.528  178.312  178.065  178.025  177.736  177.359  176.876  176.518  176.482  176.803  176.091  175.767  175.610  175.488  176.722  175.735  175.938  179.864  175.202  175.144  175.026  174.882  175.224  175.088  174.946  175.094  175.079  175.403  175.713  175.628  175.734  175.929  176.121  176.573  176.798  177.277  177.326  177.311  177.573  177.721  177.679  178.077  178.694  179.231  180.107  182.121  185.661  190.347  198.572  207.651  212.583  215.609  219.360  220.446  220.582  217.361  213.190  209.059  205.872  202.953  198.967  196.242  194.782  193.719  193.912  194.339  195.987  198.128  200.338  203.242  205.318  207.425  209.116  210.283  210.128  209.771  208.973  208.823  207.667  205.368  202.410  198.584  194.977  191.615  189.172  186.647  185.179  184.991  183.854  183.907  183.566  183.148  183.071  183.002  183.013  182.824  182.950  183.565  183.737  183.552  183.789  183.082  181.958  180.930  179.932  179.067  178.606  178.011  177.877  177.869  177.624  177.528  177.132  177.217  177.048  177.064  177.203  176.942  176.521  176.791  176.829  176.654  176.709  176.729  176.833  176.397  177.000  176.637  176.755  176.484  176.738  176.540  176.840  176.731  176.760  176.743  176.816  176.840  176.510  176.610  176.659  176.304  177.021  176.686  176.078  176.028  175.908  175.839  175.967  176.106  176.054  176.479  176.516  176.520  176.818  177.167  177.194  176.827  176.933  176.383 
DATE 2017:041:19:02:22 obsn   8 az  37 el 43 freq_MHz  1420.4000 Tsys 171.000 Tant  8.294 vlsr   17.25 glat -0.880 glon 132.120 source S7 
Fstart 1419.397 fstop 1421.403 spacing 0.009375 bw    2.400 fbw    2.000 MHz nfreq 256 nsam 5242880 npoint 214 integ   209 sigma    0.122 bsw 0
Spectrum    191 integration periods
